File: Data/Materials_HUB_Synchrotron_XRD/314MA_re_OYJ_XRD.xy
10.00000 5579.900
10.42000 4904.700
10.84000 4584.000
11.26000 4010.100
11.68000 3687.700
12.10000 3578.900
12.52000 3379.500
12.94000 3172.500
13.36000 3233.700
13.78000 3550.100
14.20000 3102.000
14.62000 3147.900
15.04000 3043.500
15.46000 3032.000
15.88000 3378.300
16.30000 3527.100
16.72000 3540.500
17.14000 3774.600
17.56000 7086.400
17.98000 5165.100
18.40000 5009.100
18.82000 4434.100
19.24000 4465.500
19.66000 4460.600
20.08000 4702.300
20.50000 4017.500
20.92000 3630.300
21.34000 3258.900
21.76000 3077.500
22.18000 2923.700
22.60000 2603.000
23.02000 2550.700
23.44000 2147.000
23.86000 1953.000
24.28000 1812.500
24.70000 1709.500
25.12000 1646.300
25.54000 1647.000
25.96000 2811.600
26.38000 2013.500
26.80000 1636.400
27.22000 1731.900
27.64000 2677.900
28.06000 1627.100
28.48000 1338.000
28.90000 1586.700
29.32000 2966.900
29.74000 2647.200
30.16000 2269.700
30.58000 1295.000
31.00000 1280.700
31.42000 1770.100
31.84000 1008.700
32.26000 958.700
32.68000 974.000
33.10000 870.600
33.52000 814.600
33.94000 771.400
34.36000 934.100
34.78000 781.000
35.20000 752.600
35.62000 741.000
36.04000 669.500
36.46000 688.900
36.88000 695.600
37.30000 686.400
37.72000 682.200
38.14000 556.700
38.56000 548.400
38.98000 730.900
39.40000 927.900
39.82000 754.800
40.24000 463.300
40.66000 786.800
41.08000 446.400
41.50000 375.600
41.92000 378.400
42.34000 451.800
42.76000 377.300
43.18000 365.500
43.60000 543.200
44.02000 460.400
44.44000 472.400
44.86000 691.700
45.28000 485.300
45.70000 408.400
46.12000 454.700
46.54000 558.500
46.96000 462.000
47.38000 421.000
47.80000 849.400
48.22000 737.600
48.64000 337.200
49.06000 327.300
49.48000 290.700
49.90000 338.000
50.32000 418.100
50.74000 494.000
51.16000 315.100
51.58000 298.100
52.00000 435.900
52.42000 577.200
52.84000 489.400
53.26000 607.000
53.68000 528.800
54.10000 449.200
54.52000 485.200
54.94000 398.300
55.36000 365.600
55.78000 347.400
56.20000 345.400
56.62000 468.700
57.04000 915.900
57.46000 580.400
57.88000 405.400
58.30000 399.700
58.72000 425.100
59.14000 487.300
59.56000 344.800
59.98000 338.400
60.40000 381.500
60.82000 437.600
61.24000 320.100
61.66000 322.900
62.08000 363.100
62.50000 345.700
62.92000 311.200
63.34000 338.800
63.76000 338.300
64.18000 313.700
64.60000 277.800
65.02000 284.900
65.44000 332.500
65.86000 251.900
66.28000 270.600
66.70000 273.000
67.12000 301.100
67.54000 336.500
67.96000 317.000
68.38000 251.600
68.80000 268.500
69.22000 292.700
69.64000 274.600
70.06000 274.400
70.48000 270.400
70.90000 246.000
71.32000 265.700
71.74000 270.500
72.16000 400.400
72.58000 431.600
73.00000 352.000
73.42000 308.500
73.84000 288.700
74.26000 267.800
74.68000 244.300
75.10000 289.700
75.52000 328.900
75.94000 308.100
76.36000 291.200
76.78000 258.100
77.20000 234.500
77.62000 249.200
78.04000 260.700
78.46000 218.300
78.88000 265.700
79.30000 245.400
79.72000 232.400
80.14000 230.000
80.56000 240.500
80.98000 233.200
81.40000 217.100
81.82000 271.500
82.24000 223.500
82.66000 234.300
83.08000 247.400
83.50000 216.700
83.92000 252.700
84.34000 280.000
84.76000 266.600
85.18000 299.300
85.60000 254.100
86.02000 244.000
86.44000 229.500
86.86000 233.800
87.28000 252.200
87.70000 244.600
88.12000 253.700
88.54000 263.200
88.96000 249.700
89.38000 250.400
89.80000 241.600
90.22000 232.900
90.64000 247.700
91.06000 253.200
91.48000 296.200
91.90000 289.200
92.32000 284.800
92.74000 296.600
93.16000 270.700
93.58000 285.300
94.00000 292.300
94.42000 257.600
94.84000 256.500
95.26000 231.100
95.68000 229.100
96.10000 274.500
96.52000 241.400
96.94000 234.400
97.36000 215.100
97.78000 207.400
98.20000 230.400
98.62000 230.000
99.04000 233.900
99.46000 237.200
99.88000 264.800
100.3 259.800
100.72 305.800
101.14 313.000
101.56 300.100
101.98 322.800
102.4 283.700
102.82 259.300
103.24 262.600
103.66 232.600
104.08 247.400
104.5 243.100
104.92 227.900
105.34 246.600
105.76 238.800
106.18 241.400
106.6 222.700
107.02 217.600
107.44 228.700
107.86 226.700
108.28 259.900
108.7 243.400
109.12 278.000
109.54 269.800
109.96 261.300
110.38 264.800
110.8 274.000
111.22 231.200
111.64 213.800
112.06 241.600
112.48 241.200
112.9 259.700
113.32 212.000
113.74 251.100
114.16 229.800
114.58 272.100
115 291.200
115.42 292.300
115.84 271.300
116.26 290.500
116.68 261.700
117.1 263.200
117.52 246.500
117.94 226.700
118.36 262.900
118.78 237.900
119.2 222.700
119.62 239.500
120.04 216.400
120.46 209.400
120.88 248.700
121.3 237.000
121.72 245.600
122.14 196.100
122.56 213.600
122.98 217.100
123.4 226.800
123.82 206.600
124.24 208.500
124.66 197.300
125.08 258.800
125.5 238.800
125.92 206.900
126.34 199.000
126.76 220.500
127.18 224.400
127.6 238.100
128.02 208.500
128.44 219.200
128.86 230.100
129.28 231.100
129.7 236.400
130.12 200.300
130.54 203.600
130.96 223.200
131 224.700