File: Data/Materials_HUB_Synchrotron_XRD/CYJ_LPSI6151_gc_XRD.xy
10.00000 1586.500
10.40500 1411.200
10.81000 1378.900
11.21500 1195.300
11.62000 1094.400
12.02500 1016.200
12.43000 843.900
12.83500 825.400
13.24000 844.900
13.64500 797.900
14.05000 823.300
14.45500 861.400
14.86000 851.200
15.26500 873.200
15.67000 802.400
16.07500 798.300
16.48000 955.400
16.88500 992.400
17.29000 1066.100
17.69500 1116.500
18.10000 1216.900
18.50500 1101.600
18.91000 1115.400
19.31500 1147.100
19.72000 1093.100
20.12500 1101.300
20.53000 1015.000
20.93500 920.700
21.34000 911.800
21.74500 809.200
22.15000 772.200
22.55500 672.900
22.96000 639.200
23.36500 587.600
23.77000 559.500
24.17500 508.400
24.58000 451.600
24.98500 922.000
25.39000 480.100
25.79500 397.200
26.20000 353.100
26.60500 354.800
27.01000 347.100
27.41500 338.400
27.82000 346.900
28.22500 304.900
28.63000 303.700
29.03500 371.200
29.44000 463.000
29.84500 271.600
30.25000 293.100
30.65500 1315.500
31.06000 294.400
31.46500 256.100
31.87000 277.400
32.27500 263.000
32.68000 243.200
33.08500 220.000
33.49000 189.500
33.89500 206.800
34.30000 208.700
34.70500 213.000
35.11000 191.500
35.51500 662.800
35.92000 170.400
36.32500 191.200
36.73000 147.300
37.13500 138.900
37.54000 152.600
37.94500 123.800
38.35000 135.400
38.75500 244.600
39.16000 97.200
39.56500 103.000
39.97000 179.500
40.37500 102.800
40.78000 88.700
41.18500 89.900
41.59000 76.900
41.99500 69.600
42.40000 58.300
42.80500 73.600
43.21000 65.400
43.61500 121.800
44.02000 196.200
44.42500 92.800
44.83000 60.600
45.23500 68.900
45.64000 72.800
46.04500 80.700
46.45000 133.400
46.85500 154.400
47.26000 64.200
47.66500 66.700
48.07000 70.300
48.47500 65.100
48.88000 65.400
49.28500 63.500
49.69000 53.100
50.09500 64.200
50.50000 74.600
50.90500 139.600
51.31000 139.500
51.71500 62.600
52.12000 62.600
52.52500 68.500
52.93000 76.800
53.33500 53.000
53.74000 78.300
54.14500 67.500
54.55000 93.300
54.95500 59.600
55.36000 53.300
55.76500 62.000
56.17000 51.400
56.57500 59.800
56.98000 58.500
57.38500 89.500
57.79000 97.600
58.19500 68.500
58.60000 61.900
59.00500 58.600
59.41000 62.100
59.81500 77.000
60.22000 79.500
60.62500 146.500
61.03000 79.800
61.43500 66.500
61.84000 59.300
62.24500 63.700
62.65000 46.600
63.05500 66.000
63.46000 64.100
63.86500 63.900
64.27000 59.500
64.67500 68.900
65.08000 54.800
65.48500 69.300
65.89000 86.200
66.29500 76.400
66.70000 1247.600
67.10500 67.700
67.51000 59.000
67.91500 67.500
68.32000 57.700
68.72500 57.500
69.13000 64.100
69.53500 1497.700
69.94000 63.700
70.34500 73.600
70.75000 54.600
71.15500 73.700
71.56000 219.100
71.96500 91.800
72.37000 61.800
72.77500 56.400
73.18000 52.200
73.58500 50.200
73.99000 62.600
74.39500 58.700
74.80000 65.700
75.20500 201.600
75.61000 57.900
76.01500 45.600
76.42000 56.100
76.82500 68.200
77.23000 235.000
77.63500 64.600
78.04000 77.200
78.44500 59.600
78.85000 59.100
79.25500 56.800
79.66000 52.000
80.06500 73.400
80.47000 158.700
80.87500 81.300
81.28000 54.900
81.68500 55.400
82.09000 72.000
82.49500 127.100
82.90000 76.600
83.30500 610.200
83.71000 61.900
84.11500 64.500
84.52000 50.700
84.92500 57.400
85.33000 49.500
85.73500 67.600
86.14000 64.400
86.54500 54.800
86.95000 41.400
87.35500 62.200
87.76000 64.600
88.16500 71.200
88.57000 142.600
88.97500 64.200
89.38000 52.800
89.78500 57.100
90.19000 49.900
90.59500 55.000
91.00000 60.000
91.40500 108.100
91.81000 53.300
92.21500 61.900
92.62000 63.800
93.02500 81.000
93.43000 102.000
93.83500 58.300
94.24000 58.800
94.64500 61.500
95.05000 59.300
95.45500 59.100
95.86000 71.700
96.26500 92.200
96.67000 865.300
97.07500 73.400
97.48000 49.200
97.88500 44.100
98.29000 60.500
98.69500 112.300
99.10000 76.400
99.50500 61.200
99.91000 63.100
100.315 61.400
100.72 75.600
101.125 52.300
101.53 86.000
101.935 225.700
102.34 77.200
102.745 73.500
103.15 65.900
103.555 69.500
103.96 165.400
104.365 80.500
104.77 294.300
105.175 72.900
105.58 70.900
105.985 71.300
106.39 56.900
106.795 72.200
107.2 70.400
107.605 55.900
108.01 66.400
108.415 61.700
108.82 72.100
109.225 56.900
109.63 77.200
110.035 61.900
110.44 208.300
110.845 58.000
111.25 70.100
111.655 53.100
112.06 55.900
112.465 67.400
112.87 61.100
113.275 404.400
113.68 75.700
114.085 75.200
114.49 60.200
114.895 61.900
115.3 105.900
115.705 74.900
116.11 63.900
116.515 87.400
116.92 62.100
117.325 61.400
117.73 54.400
118.135 67.900
118.54 65.900
118.945 86.400
119.35 84.700
119.755 66.300
120.16 70.800
120.565 70.900
120.97 60.800
121.375 85.600
121.78 82.800
122.185 144.500
122.59 63.700
122.995 66.900
123.4 68.100
123.805 73.900
124.21 77.600
124.615 70.600
125.02 84.500
125.425 236.400
125.83 65.100
126.235 62.200
126.64 83.600
127.045 74.600
127.45 60.700
127.855 114.000
128.26 91.600
128.665 123.500
129.07 94.600
129.475 75.100
129.88 84.000
130.285 66.600
130.5 71.600