File: Data/Materials_HUB_Synchrotron_XRD/CYJ_LPSBr6151_gc_XRD.xy
10.00000 1753.900
10.40500 1456.500
10.81000 1431.500
11.21500 1293.100
11.62000 1113.600
12.02500 1174.700
12.43000 1019.700
12.83500 999.800
13.24000 905.200
13.64500 964.700
14.05000 881.000
14.45500 900.400
14.86000 862.100
15.26500 946.600
15.67000 1000.900
16.07500 1018.800
16.48000 1042.300
16.88500 1129.400
17.29000 1110.000
17.69500 1330.700
18.10000 1226.000
18.50500 1277.100
18.91000 1295.800
19.31500 1380.800
19.72000 1303.100
20.12500 1261.700
20.53000 1144.800
20.93500 1074.700
21.34000 1012.400
21.74500 868.700
22.15000 861.900
22.55500 686.000
22.96000 777.400
23.36500 696.300
23.77000 556.100
24.17500 557.300
24.58000 557.900
24.98500 506.500
25.39000 672.700
25.79500 407.900
26.20000 431.800
26.60500 347.800
27.01000 351.500
27.41500 371.000
27.82000 315.800
28.22500 366.200
28.63000 319.800
29.03500 337.200
29.44000 359.300
29.84500 498.100
30.25000 316.000
30.65500 298.200
31.06000 3842.000
31.46500 281.700
31.87000 281.600
32.27500 228.700
32.68000 304.100
33.08500 235.900
33.49000 219.000
33.89500 242.200
34.30000 223.400
34.70500 216.300
35.11000 201.700
35.51500 170.800
35.92000 173.300
36.32500 146.500
36.73000 165.600
37.13500 138.300
37.54000 132.000
37.94500 128.200
38.35000 114.800
38.75500 100.200
39.16000 109.900
39.56500 120.800
39.97000 101.200
40.37500 152.100
40.78000 92.500
41.18500 84.700
41.59000 107.800
41.99500 96.600
42.40000 74.900
42.80500 93.700
43.21000 87.300
43.61500 67.200
44.02000 79.000
44.42500 351.300
44.83000 94.600
45.23500 99.100
45.64000 70.200
46.04500 71.500
46.45000 76.300
46.85500 149.300
47.26000 242.300
47.66500 108.200
48.07000 71.000
48.47500 54.800
48.88000 67.600
49.28500 64.600
49.69000 77.500
50.09500 61.100
50.50000 66.900
50.90500 104.500
51.31000 94.400
51.71500 184.600
52.12000 109.300
52.52500 90.800
52.93000 70.400
53.33500 96.900
53.74000 76.200
54.14500 67.700
54.55000 72.300
54.95500 67.000
55.36000 120.500
55.76500 70.800
56.17000 72.500
56.57500 78.400
56.98000 55.300
57.38500 62.100
57.79000 60.900
58.19500 102.800
58.60000 905.700
59.00500 80.300
59.41000 60.100
59.81500 63.100
60.22000 69.700
60.62500 76.800
61.03000 126.200
61.43500 68.300
61.84000 124.700
62.24500 62.000
62.65000 59.900
63.05500 57.300
63.46000 50.600
63.86500 61.900
64.27000 59.500
64.67500 58.600
65.08000 63.200
65.48500 67.300
65.89000 67.200
66.29500 56.000
66.70000 59.900
67.10500 75.000
67.51000 74.400
67.91500 88.800
68.32000 59.300
68.72500 66.000
69.13000 65.600
69.53500 75.700
69.94000 71.900
70.34500 67.000
70.75000 2262.300
71.15500 66.200
71.56000 65.100
71.96500 74.400
72.37000 65.400
72.77500 207.000
73.18000 86.900
73.58500 68.800
73.99000 63.300
74.39500 71.400
74.80000 67.100
75.20500 74.700
75.61000 75.500
76.01500 68.700
76.42000 269.500
76.82500 58.200
77.23000 65.600
77.63500 59.900
78.04000 58.600
78.44500 74.900
78.85000 63.500
79.25500 279.700
79.66000 63.200
80.06500 65.500
80.47000 70.600
80.87500 45.900
81.28000 80.300
81.68500 68.500
82.09000 239.500
82.49500 59.300
82.90000 55.100
83.30500 58.200
83.71000 64.000
84.11500 968.100
84.52000 77.800
84.92500 79.900
85.33000 56.400
85.73500 44.500
86.14000 62.900
86.54500 58.300
86.95000 68.700
87.35500 57.400
87.76000 52.900
88.16500 48.000
88.57000 53.500
88.97500 57.900
89.38000 57.700
89.78500 55.300
90.19000 50.400
90.59500 65.100
91.00000 50.900
91.40500 68.000
91.81000 62.700
92.21500 54.700
92.62000 58.600
93.02500 286.700
93.43000 69.300
93.83500 74.500
94.24000 56.100
94.64500 53.000
95.05000 162.700
95.45500 49.400
95.86000 69.300
96.26500 57.700
96.67000 47.000
97.07500 61.200
97.48000 61.600
97.88500 59.500
98.29000 99.700
98.69500 79.400
99.10000 81.900
99.50500 60.700
99.91000 54.800
100.315 55.300
100.72 50.400
101.125 64.800
101.53 59.800
101.935 59.700
102.34 59.400
102.745 62.800
103.15 66.200
103.555 66.600
103.96 135.400
104.365 71.100
104.77 57.400
105.175 57.300
105.58 56.000
105.985 73.400
106.39 97.100
106.795 69.300
107.2 58.200
107.605 50.900
108.01 52.500
108.415 49.300
108.82 53.600
109.225 52.700
109.63 43.100
110.035 50.700
110.44 58.300
110.845 61.500
111.25 57.700
111.655 47.200
112.06 73.700
112.465 60.700
112.87 134.900
113.275 40.200
113.68 64.700
114.085 42.600
114.49 38.700
114.895 68.300
115.3 54.500
115.705 80.200
116.11 60.200
116.515 37.200
116.92 47.300
117.325 55.000
117.73 60.100
118.135 170.400
118.54 58.600
118.945 49.000
119.35 47.000
119.755 49.600
120.16 38.600
120.565 47.200
120.97 59.300
121.375 65.200
121.78 53.400
122.185 113.700
122.59 64.200
122.995 49.600
123.4 60.100
123.805 67.000
124.21 47.400
124.615 78.500
125.02 63.900
125.425 149.500
125.83 51.200
126.235 44.300
126.64 60.900
127.045 45.200
127.45 48.600
127.855 50.600
128.26 52.400
128.665 78.100
129.07 59.800
129.475 49.500
129.88 50.300
130.285 59.600
130.5 55.600