File: Data/Materials_HUB_Synchrotron_XRD/CYJ_PSO_4-16_XRD.xy
10.30000 3168.180
10.70500 2983.310
11.11000 2752.016
11.51500 2420.723
11.92000 2275.489
12.32500 2068.621
12.73000 2019.306
13.13500 2042.213
13.54000 1878.898
13.94500 1835.885
14.35000 1879.299
14.75500 1923.457
15.16000 2085.816
15.56500 1884.260
15.97000 2043.403
16.37500 2018.766
16.78000 2175.168
17.18500 2206.886
17.59000 2338.565
17.99500 2527.402
18.40000 2622.959
18.80500 2681.133
19.21000 2552.501
19.61500 2500.260
20.02000 2465.543
20.42500 2289.966
20.83000 2166.491
21.23500 2140.460
21.64000 1878.152
22.04500 1673.047
22.45000 1501.832
22.85500 1407.820
23.26000 1261.026
23.66500 1148.141
24.07000 1096.782
24.47500 1007.535
24.88000 2094.528
25.28500 954.448
25.69000 1038.844
26.09500 816.144
26.50000 767.770
26.90500 726.788
27.31000 718.946
27.71500 722.726
28.12000 861.567
28.52500 604.115
28.93000 541.924
29.33500 705.792
29.74000 735.287
30.14500 641.686
30.54500 573.886
30.95000 484.256
31.35500 479.453
31.76000 501.085
32.16500 658.979
32.57000 515.333
32.97500 475.382
33.38000 468.918
33.78500 535.996
34.19000 417.773
34.59500 320.509
35.00000 329.200
35.40500 343.855
35.81000 327.907
36.21500 295.234
36.62000 265.844
37.02500 336.675
37.43000 215.167
37.83500 229.216
38.24000 221.222
38.64500 2654.223
39.05000 201.255
39.45500 196.123
39.86000 276.035
40.26500 169.181
40.67000 154.937
41.07500 180.640
41.48000 259.871
41.88500 146.311
42.29000 135.018
42.69500 297.346
43.10000 149.003
43.50500 120.319
43.91000 144.822
44.31500 274.209
44.72000 110.540
45.12500 117.502
45.53000 546.370
45.93500 123.230
46.34000 89.729
46.74500 161.456
47.15000 123.504
47.55500 147.855
47.96000 99.319
48.36500 111.682
48.77000 135.879
49.17500 101.407
49.58000 702.513
49.98500 100.608
50.39000 128.638
50.79000 102.755
51.19500 257.072
51.60000 120.185
52.00500 95.379
52.41000 150.192
52.81500 100.895
53.22000 136.760
53.62500 108.580
54.03000 112.241
54.43500 1073.473
54.84000 81.021
55.24500 87.715
55.65000 310.687
56.05500 113.231
56.46000 111.094
56.86500 92.705
57.27000 104.133
57.67500 258.778
58.08000 158.339
58.48500 92.845
58.89000 128.096
59.29500 90.544
59.70000 86.243
60.10500 96.692
60.51000 90.566
60.91500 169.358
61.32000 103.843
61.72500 95.190
62.13000 151.612
62.53500 95.604
62.94000 103.454
63.34500 1664.048
63.75000 107.246
64.15500 99.888
64.56000 110.733
64.96500 660.963
65.37000 153.116
65.77500 80.627
66.18000 125.165
66.58500 98.721
66.99000 113.167
67.39500 67.620
67.80000 95.992
68.20500 100.503
68.61000 112.624
69.01500 109.314
69.42000 218.861
69.82500 87.966
70.23000 85.133
70.63000 82.733
71.03500 101.253
71.44000 92.454
71.84500 109.507
72.25000 144.951
72.65500 114.685
73.06000 155.686
73.46500 806.667
73.87000 152.915
74.27500 95.960
74.68000 105.350
75.08500 123.936
75.49000 124.397
75.89500 105.967
76.30000 83.637
76.70500 84.012
77.11000 88.876
77.51500 81.846
77.92000 89.382
78.32500 80.844
78.73000 75.153
79.13500 73.536
79.54000 123.307
79.94500 124.325
80.35000 98.048
80.75500 106.622
81.16000 95.839
81.56500 96.213
81.97000 83.105
82.37500 165.204
82.78000 105.618
83.18500 124.959
83.59000 86.359
83.99500 97.300
84.40000 98.604
84.80500 105.078
85.21000 109.224
85.61500 89.977
86.02000 103.631
86.42500 85.975
86.83000 75.662
87.23500 111.177
87.64000 315.168
88.04500 161.645
88.45000 133.443
88.85500 105.004
89.26000 72.175
89.66500 85.226
90.07000 106.086
90.47500 82.445
90.87500 92.929
91.28000 100.396
91.68500 86.227
92.09000 89.476
92.49500 69.290
92.90000 86.328
93.30500 84.646
93.71000 132.874
94.11500 76.276
94.52000 75.358
94.92500 82.962
95.33000 84.427
95.73500 369.433
96.14000 107.955
96.54500 263.016
96.95000 148.238
97.35500 81.145
97.76000 109.140
98.16500 83.763
98.57000 128.785
98.97500 88.374
99.38000 98.653
99.78500 191.368
100.19 81.956
100.595 84.039
101 71.123
101.405 86.486
101.81 72.744
102.215 76.665
102.62 101.184
103.025 84.108
103.43 77.252
103.835 83.090
104.24 77.420
104.645 80.312
105.05 87.394
105.455 220.166
105.86 80.795
106.265 89.723
106.67 107.964
107.075 134.806
107.48 72.214
107.885 188.717
108.29 65.674
108.695 73.888
109.1 79.785
109.505 105.979
109.91 86.905
110.315 95.308
110.715 101.881
111.12 96.988
111.525 77.198
111.93 106.169
112.335 90.333
112.74 104.048
113.145 90.692
113.55 76.405
113.955 68.092
114.36 85.707
114.765 69.852
115.17 102.494
115.575 84.079
115.98 123.206
116.385 85.157
116.79 86.632
117.195 73.256
117.6 77.366
118.005 75.934
118.41 76.008
118.815 101.569
119.22 70.266
119.625 83.543
120.03 77.379
120.435 99.348
120.84 190.024
121.245 80.832
121.65 69.245
122.055 113.089
122.46 103.202
122.865 82.705
123.27 150.779
123.675 87.149
124.08 83.251
124.485 76.373
124.89 78.961
125.295 59.827
125.7 71.150
126.105 60.400
126.51 77.101
126.915 58.245
127.32 70.267
127.725 66.075
128.13 67.285
128.535 83.331
128.94 86.390
129.345 123.607
129.75 91.271
130.155 75.439
130.5 69.159