File: Data/Materials_HUB_Synchrotron_XRD/CYJ_cbg_LGPS_314+414_60h_XRD.xy
10.00000 2646.800
10.41000 2322.000
10.82000 2079.200
11.23000 1950.500
11.64000 1771.100
12.05000 1661.600
12.46000 2118.600
12.87000 1480.200
13.28000 1409.800
13.69000 1360.400
14.10000 2718.600
14.51000 1909.100
14.92000 1321.900
15.33000 1417.200
15.74000 1415.600
16.15000 1373.900
16.56000 1446.700
16.97000 1650.300
17.38000 2539.500
17.79000 1724.700
18.20000 1835.800
18.61000 1864.500
19.02000 1857.500
19.43000 1886.500
19.84000 1834.900
20.25000 5981.100
20.66000 1845.000
21.07000 1503.500
21.48000 1376.300
21.89000 1321.500
22.30000 1198.100
22.71000 1042.200
23.12000 1040.800
23.53000 1306.400
23.94000 3513.500
24.35000 777.600
24.76000 727.500
25.17000 685.900
25.58000 685.700
25.99000 656.100
26.40000 577.100
26.81000 583.200
27.22000 623.600
27.63000 519.500
28.04000 478.300
28.45000 553.000
28.86000 483.700
29.27000 603.500
29.68000 5555.700
30.09000 461.500
30.50000 476.200
30.91000 441.100
31.32000 429.400
31.73000 1178.100
32.14000 409.100
32.55000 444.000
32.96000 409.000
33.37000 1212.300
33.78000 361.700
34.19000 394.500
34.60000 357.400
35.01000 324.600
35.42000 280.000
35.83000 392.900
36.24000 305.600
36.65000 282.500
37.06000 271.300
37.47000 241.500
37.88000 597.400
38.29000 227.300
38.70000 219.200
39.11000 216.900
39.52000 231.700
39.93000 170.900
40.34000 171.600
40.75000 204.400
41.16000 507.100
41.57000 2525.400
41.98000 202.700
42.39000 562.700
42.80000 248.200
43.21000 297.300
43.62000 258.700
44.03000 180.300
44.44000 170.100
44.85000 148.900
45.26000 185.100
45.67000 189.600
46.08000 138.000
46.49000 136.700
46.90000 152.700
47.31000 213.500
47.72000 860.300
48.13000 132.200
48.54000 140.500
48.95000 165.000
49.36000 326.300
49.77000 116.900
50.18000 121.000
50.59000 148.200
51.00000 141.300
51.41000 131.500
51.82000 603.300
52.23000 241.600
52.64000 425.100
53.05000 421.200
53.46000 247.700
53.87000 291.700
54.28000 164.200
54.69000 173.800
55.10000 187.700
55.51000 274.300
55.92000 682.800
56.33000 169.900
56.74000 129.500
57.15000 128.700
57.56000 612.300
57.97000 173.700
58.38000 1032.400
58.79000 166.800
59.20000 305.400
59.61000 129.500
60.02000 143.000
60.43000 190.000
60.84000 664.300
61.25000 169.100
61.66000 199.800
62.07000 136.500
62.48000 131.100
62.89000 230.400
63.30000 122.100
63.71000 130.300
64.12000 171.600
64.53000 245.000
64.94000 124.500
65.35000 198.600
65.76000 196.600
66.17000 121.400
66.58000 175.800
66.99000 112.000
67.40000 105.100
67.81000 144.700
68.22000 138.100
68.63000 122.700
69.04000 174.900
69.45000 104.800
69.86000 153.200
70.27000 144.700
70.68000 139.000
71.09000 276.200
71.50000 207.700
71.91000 165.800
72.32000 271.800
72.73000 168.900
73.14000 116.800
73.55000 104.000
73.96000 103.300
74.37000 94.200
74.78000 100.700
75.19000 108.800
75.60000 338.300
76.01000 124.600
76.42000 243.900
76.83000 131.000
77.24000 131.100
77.65000 166.500
78.06000 119.100
78.47000 111.100
78.88000 115.900
79.29000 171.900
79.70000 225.800
80.11000 356.100
80.52000 148.700
80.93000 133.100
81.34000 118.300
81.75000 119.900
82.16000 112.500
82.57000 115.700
82.98000 173.600
83.39000 96.200
83.80000 246.800
84.21000 175.900
84.62000 135.500
85.03000 109.200
85.44000 106.400
85.85000 139.400
86.26000 143.700
86.67000 121.100
87.08000 105.100
87.49000 269.700
87.90000 139.300
88.31000 150.100
88.72000 160.800
89.13000 139.500
89.54000 164.400
89.95000 192.300
90.36000 241.900
90.77000 161.900
91.18000 150.200
91.59000 151.200
92.00000 126.600
92.41000 133.200
92.82000 141.700
93.23000 132.900
93.64000 163.000
94.05000 170.100
94.46000 159.700
94.87000 104.800
95.28000 144.800
95.69000 159.800
96.10000 199.300
96.51000 170.000
96.92000 118.600
97.33000 134.400
97.74000 159.000
98.15000 195.000
98.56000 172.700
98.97000 124.500
99.38000 160.700
99.79000 148.000
100.2 120.300
100.61 122.600
101.02 164.600
101.43 132.400
101.84 139.900
102.25 140.100
102.66 135.800
103.07 132.300
103.48 137.400
103.89 122.200
104.3 104.300
104.71 168.400
105.12 120.500
105.53 220.800
105.94 133.900
106.35 150.200
106.76 140.200
107.17 156.400
107.58 142.600
107.99 99.100
108.4 157.400
108.81 177.300
109.22 178.900
109.63 181.200
110.04 165.400
110.45 186.700
110.86 127.700
111.27 113.600
111.68 130.800
112.09 140.000
112.5 118.900
112.91 147.000
113.32 174.700
113.73 133.700
114.14 143.300
114.55 139.800
114.96 151.000
115.37 137.800
115.78 133.800
116.19 120.800
116.6 145.900
117.01 126.400
117.42 154.800
117.83 126.000
118.24 121.700
118.65 117.700
119.06 121.900
119.47 157.600
119.88 141.200
120.29 121.900
120.7 118.700
121.11 116.900
121.52 136.100
121.93 130.700
122.34 123.800
122.75 144.800
123.16 121.700
123.57 134.400
123.98 117.000
124.39 112.300
124.8 179.300
125.21 139.200
125.62 135.400
126.03 143.800
126.44 120.200
126.85 86.700
127.26 115.700
127.67 115.800
128.08 138.200
128.49 121.600
128.9 114.200
129.31 133.800
129.72 133.000
130.13 134.400
130.54 126.000
130.95 124.200
131 138.900