File: Data/Materials_HUB_Synchrotron_XRD/CYJ_LGeS414_g_144h_XRD.xy
10.00000 2070.500
10.40500 1818.200
10.81000 1504.800
11.21500 1491.900
11.62000 1251.800
12.02500 1302.200
12.43000 1109.800
12.83500 1166.400
13.24000 1039.500
13.64500 1133.400
14.05000 1020.700
14.45500 1041.700
14.86000 1054.100
15.26500 1055.100
15.67000 1118.800
16.07500 1157.900
16.48000 1217.800
16.88500 1248.800
17.29000 1315.000
17.69500 1363.600
18.10000 1429.100
18.50500 1910.800
18.91000 1477.000
19.31500 1764.500
19.72000 1499.200
20.12500 1430.300
20.53000 1349.800
20.93500 1304.700
21.34000 1210.500
21.74500 1071.800
22.15000 918.800
22.55500 843.500
22.96000 1086.100
23.36500 692.100
23.77000 668.800
24.17500 655.400
24.58000 579.600
24.98500 515.200
25.39000 541.300
25.79500 450.900
26.20000 491.600
26.60500 639.400
27.01000 407.700
27.41500 444.100
27.82000 370.700
28.22500 395.000
28.63000 417.800
29.03500 461.900
29.44000 1278.900
29.84500 535.500
30.25000 395.200
30.65500 289.000
31.06000 280.500
31.46500 308.100
31.87000 307.400
32.27500 303.400
32.68000 247.300
33.08500 280.100
33.49000 433.300
33.89500 316.200
34.30000 252.400
34.70500 263.500
35.11000 393.100
35.51500 233.700
35.92000 200.100
36.32500 197.600
36.73000 160.200
37.13500 215.000
37.54000 162.400
37.94500 224.700
38.35000 150.500
38.75500 347.900
39.16000 603.900
39.56500 175.500
39.97000 126.800
40.37500 134.400
40.78000 106.100
41.18500 105.200
41.59000 252.300
41.99500 98.500
42.40000 461.100
42.80500 175.500
43.21000 343.800
43.61500 132.000
44.02000 94.700
44.42500 72.000
44.83000 768.600
45.23500 85.300
45.64000 274.700
46.04500 70.200
46.45000 394.000
46.85500 100.100
47.26000 82.800
47.66500 59.100
48.07000 107.300
48.47500 64.700
48.88000 177.400
49.28500 81.300
49.69000 74.800
50.09500 228.500
50.50000 105.700
50.90500 240.900
51.31000 156.600
51.71500 88.700
52.12000 79.600
52.52500 118.400
52.93000 71.300
53.33500 128.100
53.74000 115.600
54.14500 123.300
54.55000 80.900
54.95500 1960.000
55.36000 123.400
55.76500 522.700
56.17000 178.500
56.57500 78.000
56.98000 70.500
57.38500 89.000
57.79000 75.800
58.19500 71.000
58.60000 74.000
59.00500 58.700
59.41000 62.600
59.81500 78.700
60.22000 206.000
60.62500 106.300
61.03000 177.700
61.43500 375.300
61.84000 180.500
62.24500 92.000
62.65000 90.800
63.05500 132.300
63.46000 95.100
63.86500 60.100
64.27000 79.900
64.67500 53.100
65.08000 53.600
65.48500 246.300
65.89000 171.800
66.29500 137.600
66.70000 183.100
67.10500 58.100
67.51000 62.600
67.91500 202.700
68.32000 105.100
68.72500 51.600
69.13000 54.800
69.53500 58.800
69.94000 78.700
70.34500 98.100
70.75000 42.000
71.15500 86.400
71.56000 164.100
71.96500 199.700
72.37000 162.800
72.77500 96.000
73.18000 86.600
73.58500 92.000
73.99000 64.700
74.39500 37.000
74.80000 87.700
75.20500 106.800
75.61000 60.500
76.01500 50.300
76.42000 49.200
76.82500 105.700
77.23000 131.900
77.63500 51.800
78.04000 49.800
78.44500 210.900
78.85000 66.800
79.25500 102.000
79.66000 62.700
80.06500 84.700
80.47000 100.200
80.87500 68.600
81.28000 127.600
81.68500 67.200
82.09000 49.700
82.49500 71.000
82.90000 100.400
83.30500 97.000
83.71000 75.600
84.11500 219.400
84.52000 64.000
84.92500 73.000
85.33000 79.600
85.73500 91.000
86.14000 113.800
86.54500 155.500
86.95000 73.900
87.35500 55.800
87.76000 63.300
88.16500 160.000
88.57000 193.500
88.97500 56.000
89.38000 132.800
89.78500 74.600
90.19000 90.000
90.59500 71.400
91.00000 65.500
91.40500 383.400
91.81000 97.700
92.21500 42.900
92.62000 84.600
93.02500 74.400
93.43000 139.800
93.83500 112.400
94.24000 82.100
94.64500 110.000
95.05000 90.200
95.45500 76.200
95.86000 169.000
96.26500 73.100
96.67000 97.400
97.07500 69.000
97.48000 53.100
97.88500 133.200
98.29000 112.100
98.69500 78.900
99.10000 64.800
99.50500 111.100
99.91000 51.500
100.315 85.500
100.72 83.300
101.125 118.300
101.53 100.200
101.935 244.100
102.34 80.300
102.745 83.500
103.15 128.400
103.555 67.700
103.96 61.600
104.365 64.600
104.77 93.900
105.175 85.500
105.58 68.900
105.985 106.200
106.39 50.000
106.795 62.400
107.2 80.400
107.605 60.100
108.01 92.000
108.415 122.500
108.82 146.300
109.225 82.100
109.63 95.400
110.035 192.200
110.44 46.200
110.845 74.900
111.25 113.700
111.655 88.700
112.06 82.800
112.465 57.300
112.87 73.500
113.275 123.900
113.68 80.100
114.085 83.000
114.49 85.400
114.895 103.600
115.3 67.400
115.705 101.000
116.11 78.900
116.515 57.900
116.92 89.200
117.325 73.800
117.73 80.300
118.135 69.200
118.54 71.100
118.945 66.300
119.35 95.300
119.755 125.300
120.16 106.600
120.565 68.900
120.97 91.600
121.375 61.000
121.78 72.500
122.185 82.300
122.59 63.400
122.995 85.900
123.4 71.500
123.805 73.600
124.21 114.300
124.615 65.100
125.02 65.300
125.425 96.800
125.83 64.800
126.235 55.200
126.64 51.100
127.045 84.900
127.45 68.400
127.855 86.500
128.26 71.800
128.665 78.100
129.07 64.100
129.475 89.300
129.88 142.100
130.285 68.100
130.69 54.900
131 101.300