File: Data/Materials_HUB_Synchrotron_XRD/CYJ_LPSCl6151_gc_XRD.xy
10.00000 1538.500
10.40500 1463.000
10.81000 1445.300
11.21500 1310.200
11.62000 1105.500
12.02500 1017.700
12.43000 873.100
12.83500 898.700
13.24000 905.100
13.64500 831.600
14.05000 895.100
14.45500 894.800
14.86000 896.800
15.26500 863.900
15.67000 1170.900
16.07500 1008.400
16.48000 960.000
16.88500 1138.500
17.29000 1125.200
17.69500 1261.200
18.10000 1306.800
18.50500 1239.200
18.91000 1303.900
19.31500 1199.000
19.72000 1219.200
20.12500 1150.200
20.53000 1080.000
20.93500 996.600
21.34000 903.800
21.74500 849.500
22.15000 829.500
22.55500 778.400
22.96000 719.400
23.36500 640.100
23.77000 557.400
24.17500 511.200
24.58000 491.400
24.98500 445.100
25.39000 458.600
25.79500 461.000
26.20000 397.000
26.60500 405.200
27.01000 367.000
27.41500 372.700
27.82000 338.000
28.22500 335.500
28.63000 314.300
29.03500 311.800
29.44000 296.900
29.84500 390.400
30.25000 615.500
30.65500 296.500
31.06000 253.400
31.46500 801.300
31.87000 260.600
32.27500 261.300
32.68000 257.000
33.08500 282.200
33.49000 225.600
33.89500 244.900
34.30000 184.900
34.70500 234.400
35.11000 194.400
35.51500 171.500
35.92000 180.800
36.32500 164.000
36.73000 169.800
37.13500 135.600
37.54000 150.000
37.94500 114.300
38.35000 113.500
38.75500 104.500
39.16000 110.300
39.56500 94.300
39.97000 286.300
40.37500 95.400
40.78000 88.000
41.18500 88.200
41.59000 98.200
41.99500 70.800
42.40000 83.800
42.80500 77.100
43.21000 74.600
43.61500 68.300
44.02000 67.600
44.42500 90.100
44.83000 74.900
45.23500 3501.500
45.64000 88.300
46.04500 70.200
46.45000 77.700
46.85500 53.800
47.26000 69.200
47.66500 70.500
48.07000 591.900
48.47500 70.700
48.88000 83.400
49.28500 49.100
49.69000 90.000
50.09500 56.300
50.50000 65.200
50.90500 71.200
51.31000 71.900
51.71500 76.200
52.12000 91.400
52.52500 196.700
52.93000 115.800
53.33500 119.700
53.74000 69.500
54.14500 81.800
54.55000 79.800
54.95500 85.000
55.36000 693.900
55.76500 60.800
56.17000 230.800
56.57500 70.400
56.98000 74.100
57.38500 58.000
57.79000 54.600
58.19500 68.100
58.60000 76.700
59.00500 78.000
59.41000 170.400
59.81500 65.800
60.22000 69.900
60.62500 51.100
61.03000 71.400
61.43500 65.400
61.84000 125.700
62.24500 62.500
62.65000 179.600
63.05500 68.800
63.46000 57.300
63.86500 59.000
64.27000 50.100
64.67500 58.500
65.08000 61.800
65.48500 51.700
65.89000 64.700
66.29500 61.100
66.70000 54.200
67.10500 54.300
67.51000 52.000
67.91500 61.700
68.32000 66.700
68.72500 54.900
69.13000 58.800
69.53500 52.100
69.94000 53.800
70.34500 47.700
70.75000 48.700
71.15500 58.900
71.56000 66.600
71.96500 657.700
72.37000 61.700
72.77500 71.300
73.18000 63.100
73.58500 69.100
73.99000 122.600
74.39500 73.800
74.80000 80.900
75.20500 49.900
75.61000 70.200
76.01500 48.200
76.42000 48.400
76.82500 70.500
77.23000 60.900
77.63500 97.600
78.04000 64.200
78.44500 50.900
78.85000 65.800
79.25500 47.200
79.66000 53.900
80.06500 58.200
80.47000 62.400
80.87500 53.800
81.28000 47.000
81.68500 58.000
82.09000 59.000
82.49500 70.000
82.90000 57.400
83.30500 98.600
83.71000 75.700
84.11500 52.600
84.52000 59.600
84.92500 56.400
85.33000 74.700
85.73500 203.000
86.14000 73.600
86.54500 68.800
86.95000 50.200
87.35500 61.300
87.76000 54.300
88.16500 55.900
88.57000 61.400
88.97500 58.200
89.38000 53.800
89.78500 51.800
90.19000 62.400
90.59500 72.400
91.00000 61.100
91.40500 91.700
91.81000 49.900
92.21500 56.300
92.62000 54.700
93.02500 45.300
93.43000 59.300
93.83500 57.200
94.24000 48.600
94.64500 74.200
95.05000 57.800
95.45500 55.200
95.86000 60.800
96.26500 72.900
96.67000 73.100
97.07500 110.200
97.48000 72.400
97.88500 71.500
98.29000 63.000
98.69500 55.100
99.10000 72.100
99.50500 48.000
99.91000 68.600
100.315 80.400
100.72 89.500
101.125 82.800
101.53 52.600
101.935 66.200
102.34 58.900
102.745 76.500
103.15 67.700
103.555 54.000
103.96 41.200
104.365 60.300
104.77 78.200
105.175 51.700
105.58 55.500
105.985 67.800
106.39 230.000
106.795 71.200
107.2 50.500
107.605 51.800
108.01 54.100
108.415 78.800
108.82 52.600
109.225 97.600
109.63 56.300
110.035 69.600
110.44 52.900
110.845 64.400
111.25 54.100
111.655 44.400
112.06 51.300
112.465 47.700
112.87 56.300
113.275 49.400
113.68 58.600
114.085 57.700
114.49 52.300
114.895 71.700
115.3 58.300
115.705 53.300
116.11 51.500
116.515 50.500
116.92 51.600
117.325 52.800
117.73 42.900
118.135 55.700
118.54 116.500
118.945 63.700
119.35 46.400
119.755 53.500
120.16 65.100
120.565 42.800
120.97 91.200
121.375 57.300
121.78 52.800
122.185 61.100
122.59 50.800
122.995 53.300
123.4 43.700
123.805 47.500
124.21 44.600
124.615 51.200
125.02 71.500
125.425 85.800
125.83 52.700
126.235 56.800
126.64 42.300
127.045 54.700
127.45 48.400
127.855 103.000
128.26 55.600
128.665 63.100
129.07 50.100
129.475 56.200
129.88 39.300
130.285 56.900
130.5 46.900