File: Data/Materials_HUB_Synchrotron_XRD/CYJ_bg_LSiS414_108h-2_XRD.xy
10.50000 2690.500
10.90500 2599.400
11.31000 2343.900
11.71500 2108.700
12.12000 2034.200
12.52500 1793.800
12.93000 5171.200
13.33500 1712.900
13.74000 1662.100
14.14500 1723.000
14.55000 1664.100
14.95500 1706.500
15.36000 1681.100
15.76500 1764.300
16.17000 1746.000
16.57500 1844.600
16.98000 1946.200
17.38500 2128.600
17.79000 2184.600
18.19500 2288.200
18.60000 2346.200
19.00500 2423.100
19.41000 4804.300
19.81500 2265.500
20.22000 2191.700
20.62500 1995.100
21.03000 2042.000
21.43500 1796.600
21.84000 1634.100
22.24500 1428.900
22.65000 1356.600
23.05500 1233.600
23.46000 1109.400
23.86500 979.600
24.27000 923.900
24.67500 882.300
25.08000 837.400
25.48500 836.300
25.89000 1291.600
26.29500 864.800
26.70000 781.400
27.10500 3165.700
27.51000 706.200
27.91500 714.700
28.32000 641.700
28.72500 572.800
29.13000 14228.500
29.53500 830.600
29.94000 906.200
30.34500 927.700
30.75000 521.400
31.15500 494.600
31.56000 459.400
31.96500 501.100
32.37000 424.900
32.77500 462.700
33.18000 479.300
33.58500 410.600
33.99000 396.400
34.39500 350.600
34.80000 352.800
35.20500 330.900
35.61000 348.600
36.01500 322.100
36.42000 272.900
36.82500 256.600
37.23000 269.600
37.63500 216.600
38.04000 351.200
38.44500 238.800
38.85000 221.400
39.25500 227.800
39.66000 520.800
40.06500 454.600
40.47000 166.100
40.87500 149.100
41.28000 191.900
41.68500 150.900
42.09000 217.800
42.49500 457.300
42.90000 190.400
43.30500 139.300
43.71000 122.600
44.11500 139.300
44.52000 131.500
44.92500 278.100
45.33000 126.500
45.73500 170.500
46.14000 3801.900
46.54500 196.300
46.95000 681.100
47.35500 117.600
47.76000 152.600
48.16500 124.500
48.57000 213.500
48.97500 107.300
49.38000 113.100
49.78500 169.200
50.19000 163.500
50.59500 172.600
51.00000 512.900
51.40500 116.100
51.81000 138.500
52.21500 447.000
52.62000 176.900
53.02500 145.600
53.43000 347.100
53.83500 113.400
54.24000 165.300
54.64500 269.700
55.05000 167.100
55.45500 2516.100
55.86000 232.400
56.26500 338.500
56.67000 245.600
57.07500 349.200
57.48000 403.500
57.88500 212.800
58.29000 120.200
58.69500 116.100
59.10000 158.300
59.50500 115.300
59.91000 97.100
60.31500 152.300
60.72000 137.700
61.12500 219.400
61.53000 207.700
61.93500 186.200
62.34000 117.000
62.74500 162.800
63.15000 105.900
63.55500 98.200
63.96000 111.600
64.36500 108.000
64.77000 117.400
65.17500 185.800
65.58000 169.700
65.98500 116.900
66.39000 131.300
66.79500 141.400
67.20000 164.200
67.60500 134.700
68.01000 161.900
68.41500 188.200
68.82000 181.700
69.22500 123.600
69.63000 118.200
70.03500 185.600
70.44000 118.300
70.84500 115.900
71.25000 135.500
71.65500 191.100
72.06000 177.600
72.46500 162.200
72.87000 199.500
73.27500 356.600
73.68000 159.800
74.08500 137.200
74.49000 227.800
74.89500 138.400
75.30000 134.000
75.70500 525.700
76.11000 288.900
76.51500 139.300
76.92000 128.900
77.32500 161.300
77.73000 99.600
78.13500 118.300
78.54000 78.900
78.94500 100.100
79.35000 162.900
79.75500 173.800
80.16000 291.900
80.56500 382.100
80.97000 168.000
81.37500 171.700
81.78000 99.600
82.18500 306.500
82.59000 124.300
82.99500 258.500
83.40000 130.900
83.80500 445.300
84.21000 165.700
84.61500 162.800
85.02000 148.200
85.42500 134.600
85.83000 260.400
86.23500 193.600
86.64000 296.100
87.04500 153.600
87.45000 147.100
87.85500 103.100
88.26000 169.100
88.66500 168.200
89.07000 113.600
89.47500 187.000
89.88000 160.100
90.28500 327.300
90.69000 173.600
91.09500 277.000
91.50000 348.500
91.90500 110.400
92.31000 134.700
92.71500 145.500
93.12000 169.300
93.52500 155.200
93.93000 252.900
94.33500 296.800
94.74000 116.000
95.14500 274.000
95.55000 147.000
95.95500 237.800
96.36000 157.400
96.76500 197.400
97.17000 132.800
97.57500 114.600
97.98000 312.000
98.38500 194.900
98.79000 171.500
99.19500 240.300
99.60000 194.300
100.005 142.700
100.41 148.500
100.815 129.700
101.22 199.300
101.625 143.000
102.03 353.000
102.435 385.000
102.84 161.200
103.245 375.900
103.65 138.400
104.055 181.900
104.46 132.700
104.865 196.400
105.27 174.900
105.675 232.600
106.08 197.700
106.485 161.400
106.89 194.200
107.295 140.500
107.7 156.200
108.105 223.700
108.51 237.800
108.915 226.000
109.32 128.100
109.725 153.900
110.13 282.500
110.535 232.000
110.94 180.600
111.345 174.400
111.75 193.100
112.155 208.200
112.56 221.500
112.965 130.000
113.37 165.300
113.775 137.900
114.18 179.000
114.585 186.700
114.99 137.200
115.395 146.100
115.8 148.100
116.205 162.400
116.61 156.100
117.015 256.600
117.42 153.100
117.825 152.200
118.23 150.000
118.635 134.500
119.04 146.600
119.445 167.100
119.85 193.000
120.255 245.900
120.66 203.700
121.065 188.400
121.47 176.500
121.875 289.500
122.28 155.400
122.685 169.400
123.09 158.800
123.495 132.700
123.9 167.700
124.305 170.400
124.71 166.600
125.115 200.700
125.52 123.600
125.925 227.700
126.33 147.400
126.735 137.000
127.14 216.300
127.545 136.400
127.95 144.500
128.355 202.600
128.76 246.800
129.165 202.000
129.57 171.100
129.975 174.700
130.38 153.400
130.785 268.600
131 202.900