File: Data/Materials_HUB_Synchrotron_XRD/Lee-LiPSI4141-c_pallet_Q_XRD.xy
10.30000 3180.200
10.70500 2996.700
11.11000 2750.800
11.51500 2417.600
11.92000 2278.300
12.32500 2077.000
12.73000 2012.500
13.13500 2033.700
13.54000 1879.400
13.94500 1828.700
14.35000 1871.000
14.75500 1923.400
15.16000 2084.300
15.56500 1885.800
15.97000 2033.400
16.37500 2026.800
16.78000 2166.000
17.18500 2216.400
17.59000 2331.600
17.99500 2516.500
18.40000 2567.700
18.80500 2603.100
19.21000 2502.900
19.61500 2506.900
20.02000 2524.800
20.42500 2360.100
20.83000 2205.100
21.23500 2128.600
21.64000 1832.000
22.04500 1665.400
22.45000 1508.700
22.85500 1401.200
23.26000 1266.200
23.66500 1147.900
24.07000 1095.000
24.47500 1006.700
24.88000 2102.200
25.28500 939.100
25.69000 1013.800
26.09500 808.200
26.50000 778.900
26.90500 745.400
27.31000 727.800
27.71500 714.100
28.12000 862.300
28.52500 601.800
28.93000 544.200
29.33500 703.100
29.74000 737.600
30.14500 642.700
30.54500 576.700
30.95000 482.900
31.35500 478.600
31.76000 502.100
32.16500 657.300
32.57000 515.700
32.97500 473.900
33.38000 467.600
33.78500 537.500
34.19000 419.200
34.59500 321.900
35.00000 330.200
35.40500 345.500
35.81000 326.600
36.21500 294.300
36.62000 264.600
37.02500 335.300
37.43000 214.600
37.83500 228.100
38.24000 220.200
38.64500 2651.400
39.05000 202.100
39.45500 196.200
39.86000 276.300
40.26500 169.300
40.67000 154.700
41.07500 180.900
41.48000 260.900
41.88500 146.300
42.29000 134.700
42.69500 298.100
43.10000 149.300
43.50500 120.600
43.91000 144.800
44.31500 274.000
44.72000 110.500
45.12500 117.000
45.53000 546.900
45.93500 122.800
46.34000 89.400
46.74500 162.100
47.15000 123.200
47.55500 147.500
47.96000 99.400
48.36500 111.900
48.77000 135.800
49.17500 101.500
49.58000 702.400
49.98500 100.400
50.39000 128.800
50.79000 102.600
51.19500 256.100
51.60000 120.200
52.00500 95.700
52.41000 150.400
52.81500 100.500
53.22000 137.200
53.62500 108.800
54.03000 111.700
54.43500 1075.900
54.84000 81.100
55.24500 87.300
55.65000 311.600
56.05500 113.100
56.46000 110.900
56.86500 92.500
57.27000 104.600
57.67500 258.900
58.08000 159.100
58.48500 93.000
58.89000 127.600
59.29500 90.700
59.70000 86.300
60.10500 96.400
60.51000 90.200
60.91500 169.200
61.32000 103.800
61.72500 95.400
62.13000 152.300
62.53500 95.600
62.94000 103.000
63.34500 1670.900
63.75000 107.100
64.15500 100.000
64.56000 110.400
64.96500 659.400
65.37000 153.100
65.77500 80.700
66.18000 125.300
66.58500 98.800
66.99000 112.700
67.39500 67.300
67.80000 96.400
68.20500 100.100
68.61000 112.900
69.01500 109.300
69.42000 219.300
69.82500 88.400
70.23000 85.000
70.63000 83.100
71.03500 101.600
71.44000 92.600
71.84500 109.500
72.25000 145.200
72.65500 114.800
73.06000 155.600
73.46500 808.800
73.87000 152.900
74.27500 96.400
74.68000 105.700
75.08500 124.100
75.49000 124.300
75.89500 105.500
76.30000 83.600
76.70500 83.900
77.11000 88.900
77.51500 81.500
77.92000 89.600
78.32500 81.000
78.73000 75.300
79.13500 73.900
79.54000 123.700
79.94500 123.900
80.35000 98.100
80.75500 106.900
81.16000 95.500
81.56500 96.100
81.97000 83.400
82.37500 165.800
82.78000 105.700
83.18500 124.800
83.59000 86.300
83.99500 97.200
84.40000 98.400
84.80500 105.300
85.21000 109.500
85.61500 89.800
86.02000 103.300
86.42500 86.100
86.83000 75.600
87.23500 111.700
87.64000 315.400
88.04500 161.700
88.45000 133.400
88.85500 105.000
89.26000 72.100
89.66500 85.400
90.07000 105.600
90.47500 82.100
90.87500 92.800
91.28000 100.500
91.68500 86.600
92.09000 89.700
92.49500 69.300
92.90000 86.000
93.30500 84.500
93.71000 132.900
94.11500 76.000
94.52000 75.500
94.92500 83.300
95.33000 84.700
95.73500 368.900
96.14000 107.500
96.54500 264.300
96.95000 148.200
97.35500 80.800
97.76000 109.600
98.16500 83.700
98.57000 129.100
98.97500 88.500
99.38000 98.300
99.78500 190.900
100.19 82.200
100.595 84.100
101 71.000
101.405 86.300
101.81 72.900
102.215 76.800
102.62 101.100
103.025 83.900
103.43 76.900
103.835 83.400
104.24 77.200
104.645 80.000
105.05 87.500
105.455 219.800
105.86 81.100
106.265 89.800
106.67 108.500
107.075 134.300
107.48 72.400
107.885 188.500
108.29 65.500
108.695 74.100
109.1 79.900
109.505 106.200
109.91 87.100
110.315 95.000
110.715 102.200
111.12 96.900
111.525 77.300
111.93 106.100
112.335 90.400
112.74 104.000
113.145 90.600
113.55 76.600
113.955 68.400
114.36 85.700
114.765 69.600
115.17 102.800
115.575 84.100
115.98 123.400
116.385 85.500
116.79 86.500
117.195 73.200
117.6 77.100
118.005 76.200
118.41 76.100
118.815 101.800
119.22 70.400
119.625 83.700
120.03 77.700
120.435 99.800
120.84 189.800
121.245 80.500
121.65 69.100
122.055 112.800
122.46 102.900
122.865 82.500
123.27 150.300
123.675 87.500
124.08 83.500
124.485 76.400
124.89 78.900
125.295 60.000
125.7 71.100
126.105 60.300
126.51 77.300
126.915 58.300
127.32 70.100
127.725 66.400
128.13 67.300
128.535 83.000
128.94 86.100
129.345 124.000
129.75 91.600
130.155 75.300
130.5 68.900