File: Data/Materials_HUB_Synchrotron_XRD/Lee-LSPS101212-c(6E)-600C_outP_xB_XRD.xy
10.00000 4850.400
10.41000 4274.200
10.82000 3932.300
11.23000 3530.000
11.64000 3187.700
12.05000 3281.100
12.46000 2922.400
12.87000 2745.000
13.28000 2592.500
13.69000 2598.000
14.10000 2492.600
14.51000 2620.500
14.92000 2607.600
15.33000 2692.600
15.74000 2719.100
16.15000 2933.400
16.56000 3088.700
16.97000 3216.300
17.38000 3253.400
17.79000 3443.200
18.20000 3609.500
18.61000 3615.800
19.02000 3728.800
19.43000 3776.100
19.84000 3730.300
20.25000 3627.200
20.66000 3214.900
21.07000 2953.500
21.48000 2774.100
21.89000 2617.900
22.30000 2305.500
22.71000 2177.600
23.12000 2007.400
23.53000 1744.700
23.94000 1809.000
24.35000 1523.100
24.76000 2055.200
25.17000 1367.400
25.58000 1289.100
25.99000 1246.200
26.40000 1144.000
26.81000 6432.600
27.22000 1150.900
27.63000 996.400
28.04000 1065.700
28.45000 990.700
28.86000 961.100
29.27000 3534.100
29.68000 913.800
30.09000 871.900
30.50000 851.200
30.91000 801.600
31.32000 839.600
31.73000 792.900
32.14000 806.800
32.55000 1402.000
32.96000 742.100
33.37000 764.200
33.78000 708.900
34.19000 639.400
34.60000 610.100
35.01000 669.700
35.42000 1312.000
35.83000 618.400
36.24000 586.800
36.65000 558.900
37.06000 476.700
37.47000 1452.600
37.88000 598.100
38.29000 379.100
38.70000 428.200
39.11000 375.400
39.52000 343.600
39.93000 397.200
40.34000 311.700
40.75000 696.700
41.16000 336.100
41.57000 381.700
41.98000 645.500
42.39000 414.100
42.80000 289.000
43.21000 273.400
43.62000 259.500
44.03000 337.900
44.44000 226.100
44.85000 249.100
45.26000 441.100
45.67000 204.200
46.08000 262.400
46.49000 275.100
46.90000 338.000
47.31000 528.700
47.72000 261.400
48.13000 247.500
48.54000 213.400
48.95000 323.300
49.36000 201.300
49.77000 208.700
50.18000 185.400
50.59000 215.300
51.00000 180.600
51.41000 386.600
51.82000 402.300
52.23000 1421.000
52.64000 201.500
53.05000 367.900
53.46000 404.100
53.87000 184.400
54.28000 217.000
54.69000 377.400
55.10000 205.900
55.51000 465.900
55.92000 195.000
56.33000 187.900
56.74000 174.500
57.15000 276.700
57.56000 248.800
57.97000 257.300
58.38000 181.200
58.79000 827.100
59.20000 195.800
59.61000 186.900
60.02000 765.500
60.43000 781.400
60.84000 186.500
61.25000 202.500
61.66000 151.600
62.07000 323.200
62.48000 366.200
62.89000 220.300
63.30000 173.500
63.71000 187.600
64.12000 368.400
64.53000 247.900
64.94000 376.500
65.35000 187.200
65.76000 155.600
66.17000 156.200
66.58000 155.000
66.99000 192.100
67.40000 139.000
67.81000 346.400
68.22000 226.800
68.63000 155.900
69.04000 156.700
69.45000 184.300
69.86000 229.200
70.27000 170.500
70.68000 739.500
71.09000 160.800
71.50000 190.600
71.91000 312.700
72.32000 209.000
72.73000 138.500
73.14000 179.200
73.55000 294.300
73.96000 160.000
74.37000 287.800
74.78000 184.100
75.19000 201.600
75.60000 249.700
76.01000 159.100
76.42000 194.800
76.83000 178.800
77.24000 271.200
77.65000 197.800
78.06000 242.700
78.47000 167.300
78.88000 242.600
79.29000 254.300
79.70000 349.500
80.11000 195.100
80.52000 175.200
80.93000 203.300
81.34000 172.000
81.75000 202.900
82.16000 168.600
82.57000 218.800
82.98000 213.100
83.39000 244.000
83.80000 191.600
84.21000 199.300
84.62000 176.400
85.03000 164.300
85.44000 209.800
85.85000 170.000
86.26000 188.900
86.67000 282.000
87.08000 173.500
87.49000 196.500
87.90000 283.000
88.31000 192.800
88.72000 228.000
89.13000 235.500
89.54000 202.200
89.95000 299.900
90.36000 173.000
90.77000 188.600
91.18000 173.800
91.59000 192.100
92.00000 187.000
92.41000 299.600
92.82000 210.600
93.23000 166.700
93.64000 254.000
94.05000 190.700
94.46000 183.900
94.87000 181.800
95.28000 267.500
95.69000 174.000
96.10000 186.200
96.51000 168.500
96.92000 241.700
97.33000 222.600
97.74000 246.200
98.15000 179.200
98.56000 166.200
98.97000 194.800
99.38000 209.000
99.79000 186.200
100.2 149.500
100.61 236.300
101.02 199.500
101.43 213.100
101.84 165.800
102.25 160.500
102.66 182.000
103.07 155.600
103.48 208.800
103.89 181.000
104.3 228.400
104.71 205.900
105.12 197.600
105.53 156.300
105.94 212.300
106.35 221.600
106.76 184.400
107.17 216.200
107.58 183.500
107.99 183.300
108.4 215.100
108.81 268.500
109.22 172.900
109.63 165.700
110.04 147.200
110.45 154.600
110.86 196.300
111.27 141.400
111.68 181.800
112.09 225.500
112.5 165.000
112.91 162.700
113.32 179.100
113.73 192.300
114.14 172.500
114.55 197.000
114.96 180.500
115.37 154.300
115.78 171.300
116.19 233.400
116.6 190.400
117.01 171.100
117.42 193.600
117.83 189.200
118.24 148.400
118.65 149.000
119.06 173.000
119.47 165.000
119.88 154.800
120.29 206.200
120.7 203.500
121.11 182.700
121.52 136.900
121.93 162.100
122.34 159.800
122.75 182.700
123.16 162.500
123.57 143.800
123.98 172.900
124.39 176.500
124.8 136.200
125.21 155.900
125.62 135.200
126.03 208.600
126.44 174.100
126.85 162.700
127.26 157.000
127.67 151.100
128.08 138.800
128.49 171.600
128.9 186.600
129.31 162.600
129.72 141.300
130.13 163.700
130.54 157.100
130.95 198.400
131 159.600