File: Data/Materials_HUB_Synchrotron_XRD/Li6425_450_12h_AQ_b1_OYJ_XRD.xy
10.00000 2996.000
10.41000 2663.600
10.82000 2357.200
11.23000 2166.300
11.64000 1970.500
12.05000 1908.700
12.46000 1786.100
12.87000 1591.600
13.28000 1583.500
13.69000 1605.000
14.10000 1570.800
14.51000 1503.600
14.92000 1453.700
15.33000 1625.900
15.74000 1621.600
16.15000 1724.000
16.56000 1842.100
16.97000 2024.100
17.38000 2121.800
17.79000 2038.500
18.20000 2248.200
18.61000 2202.600
19.02000 2352.700
19.43000 2330.300
19.84000 2188.400
20.25000 2066.700
20.66000 2137.800
21.07000 1756.200
21.48000 1685.400
21.89000 1518.400
22.30000 1332.900
22.71000 1217.500
23.12000 1173.300
23.53000 1008.700
23.94000 968.900
24.35000 16357.800
24.76000 875.300
25.17000 799.100
25.58000 1011.500
25.99000 739.100
26.40000 725.900
26.81000 700.700
27.22000 683.000
27.63000 621.400
28.04000 629.700
28.45000 621.400
28.86000 575.900
29.27000 622.900
29.68000 1232.600
30.09000 578.000
30.50000 519.300
30.91000 484.000
31.32000 427.700
31.73000 429.800
32.14000 440.800
32.55000 379.100
32.96000 407.600
33.37000 412.500
33.78000 378.200
34.19000 366.900
34.60000 455.500
35.01000 339.400
35.42000 336.300
35.83000 319.100
36.24000 325.200
36.65000 261.600
37.06000 266.900
37.47000 227.200
37.88000 282.500
38.29000 219.600
38.70000 246.800
39.11000 272.300
39.52000 208.200
39.93000 180.800
40.34000 156.200
40.75000 174.400
41.16000 125.900
41.57000 162.000
41.98000 155.600
42.39000 181.900
42.80000 2548.200
43.21000 131.800
43.62000 133.900
44.03000 103.600
44.44000 125.300
44.85000 116.900
45.26000 111.300
45.67000 354.100
46.08000 105.500
46.49000 103.700
46.90000 103.200
47.31000 123.800
47.72000 131.600
48.13000 121.200
48.54000 101.000
48.95000 99.300
49.36000 125.800
49.77000 544.700
50.18000 183.500
50.59000 132.900
51.00000 106.000
51.41000 107.700
51.82000 92.400
52.23000 230.800
52.64000 129.800
53.05000 435.400
53.46000 95.600
53.87000 82.900
54.28000 81.200
54.69000 78.800
55.10000 102.100
55.51000 91.400
55.92000 123.200
56.33000 489.100
56.74000 112.600
57.15000 85.400
57.56000 96.800
57.97000 93.600
58.38000 122.900
58.79000 109.900
59.20000 651.500
59.61000 88.800
60.02000 89.400
60.43000 85.300
60.84000 86.400
61.25000 120.800
61.66000 138.900
62.07000 120.600
62.48000 100.100
62.89000 71.100
63.30000 72.000
63.71000 91.700
64.12000 93.100
64.53000 87.000
64.94000 253.600
65.35000 165.400
65.76000 95.100
66.17000 100.300
66.58000 100.400
66.99000 79.000
67.40000 137.600
67.81000 1564.800
68.22000 129.400
68.63000 100.400
69.04000 96.400
69.45000 143.700
69.86000 509.900
70.27000 95.400
70.68000 73.400
71.09000 77.200
71.50000 74.500
71.91000 89.300
72.32000 107.100
72.73000 89.200
73.14000 274.100
73.55000 98.900
73.96000 91.500
74.37000 97.400
74.78000 78.800
75.19000 86.200
75.60000 116.800
76.01000 134.500
76.42000 84.300
76.83000 87.900
77.24000 83.100
77.65000 101.400
78.06000 120.800
78.47000 634.800
78.88000 69.100
79.29000 76.900
79.70000 92.600
80.11000 84.300
80.52000 137.700
80.93000 177.100
81.34000 84.400
81.75000 90.800
82.16000 82.200
82.57000 70.300
82.98000 110.000
83.39000 117.100
83.80000 127.800
84.21000 68.400
84.62000 126.300
85.03000 82.600
85.44000 94.400
85.85000 102.600
86.26000 169.700
86.67000 76.300
87.08000 97.100
87.49000 67.400
87.90000 71.900
88.31000 89.900
88.72000 289.300
89.13000 100.800
89.54000 71.500
89.95000 84.600
90.36000 83.800
90.77000 82.400
91.18000 78.200
91.59000 80.100
92.00000 74.300
92.41000 75.700
92.82000 82.700
93.23000 111.600
93.64000 180.300
94.05000 148.700
94.46000 98.200
94.87000 81.400
95.28000 94.100
95.69000 113.000
96.10000 99.200
96.51000 101.400
96.92000 90.400
97.33000 81.400
97.74000 99.100
98.15000 123.600
98.56000 140.600
98.97000 503.400
99.38000 114.600
99.79000 98.800
100.2 80.700
100.61 139.900
101.02 122.200
101.43 142.500
101.84 90.300
102.25 78.700
102.66 85.700
103.07 87.100
103.48 76.900
103.89 68.700
104.3 84.500
104.71 60.600
105.12 79.300
105.53 87.700
105.94 78.900
106.35 127.000
106.76 189.900
107.17 100.600
107.58 76.700
107.99 86.400
108.4 94.800
108.81 96.700
109.22 122.900
109.63 130.800
110.04 74.100
110.45 86.600
110.86 87.700
111.27 90.600
111.68 94.400
112.09 78.900
112.5 71.100
112.91 84.400
113.32 59.800
113.73 78.200
114.14 73.100
114.55 102.100
114.96 162.900
115.37 72.900
115.78 74.400
116.19 63.000
116.6 103.000
117.01 102.700
117.42 84.800
117.83 127.500
118.24 79.600
118.65 73.100
119.06 58.700
119.47 72.000
119.88 67.600
120.29 83.200
120.7 205.000
121.11 85.100
121.52 83.200
121.93 68.000
122.34 72.700
122.75 80.200
123.16 100.300
123.57 96.600
123.98 103.300
124.39 77.000
124.8 85.300
125.21 66.000
125.62 85.900
126.03 72.300
126.44 71.300
126.85 84.700
127.26 57.000
127.67 57.100
128.08 59.400
128.49 73.300
128.9 76.800
129.31 88.700
129.72 87.100
130.13 85.200
130.54 73.600
130.95 82.500
131 66.300