File: Data/Materials_HUB_Synchrotron_XRD/Li67_450_12h_AQ_b5_OYJ_XRD.xy
10.50000 2219.500
10.91000 2133.200
11.32000 1982.100
11.73000 1817.100
12.14000 1548.900
12.55000 1614.500
12.96000 1511.300
13.37000 1431.300
13.78000 1387.900
14.19000 1438.700
14.60000 1327.300
15.01000 1371.000
15.42000 1431.200
15.83000 1413.700
16.24000 1531.700
16.65000 1579.700
17.06000 1768.600
17.47000 1669.700
17.88000 1751.600
18.29000 1842.100
18.70000 1904.400
19.11000 1953.300
19.52000 1975.000
19.93000 1785.200
20.34000 1782.200
20.75000 2303.900
21.16000 1545.000
21.57000 1388.600
21.98000 1212.800
22.39000 1140.800
22.80000 1036.900
23.21000 1013.100
23.62000 907.100
24.03000 936.700
24.44000 18264.800
24.85000 778.000
25.26000 741.500
25.67000 2043.500
26.08000 696.000
26.49000 564.600
26.90000 565.700
27.31000 570.900
27.72000 604.900
28.13000 603.200
28.54000 664.300
28.95000 586.600
29.36000 615.700
29.77000 963.200
30.18000 656.400
30.59000 419.000
31.00000 433.900
31.41000 735.300
31.82000 437.900
32.23000 423.300
32.64000 341.400
33.05000 363.700
33.46000 394.100
33.87000 378.700
34.28000 321.000
34.69000 376.900
35.10000 365.000
35.51000 323.000
35.92000 290.600
36.33000 399.500
36.74000 267.800
37.15000 271.200
37.56000 239.300
37.97000 288.400
38.38000 233.800
38.79000 262.600
39.20000 365.300
39.61000 218.900
40.02000 206.700
40.43000 190.400
40.84000 167.400
41.25000 194.700
41.66000 172.000
42.07000 208.000
42.48000 370.400
42.89000 1060.200
43.30000 197.600
43.71000 170.500
44.12000 135.400
44.53000 148.500
44.94000 183.900
45.35000 162.500
45.76000 1895.500
46.17000 168.500
46.58000 142.300
46.99000 146.100
47.40000 225.900
47.81000 131.800
48.22000 130.900
48.63000 122.400
49.04000 119.600
49.45000 148.000
49.86000 333.700
50.27000 384.000
50.68000 144.600
51.09000 130.000
51.50000 130.100
51.91000 127.200
52.32000 297.600
52.73000 227.100
53.14000 229.400
53.55000 137.500
53.96000 109.300
54.37000 123.400
54.78000 145.100
55.19000 135.000
55.60000 137.000
56.01000 142.300
56.42000 916.000
56.83000 116.400
57.24000 128.300
57.65000 106.600
58.06000 106.800
58.47000 118.300
58.88000 148.100
59.29000 215.700
59.70000 155.500
60.11000 106.600
60.52000 89.800
60.93000 108.700
61.34000 130.800
61.75000 128.700
62.16000 121.200
62.57000 113.700
62.98000 106.600
63.39000 113.600
63.80000 114.600
64.21000 120.300
64.62000 126.800
65.03000 141.100
65.44000 216.200
65.85000 127.200
66.26000 97.000
66.67000 102.100
67.08000 120.100
67.49000 129.700
67.90000 492.100
68.31000 162.500
68.72000 92.400
69.13000 123.400
69.54000 114.300
69.95000 282.800
70.36000 118.300
70.77000 102.600
71.18000 102.500
71.59000 128.400
72.00000 99.600
72.41000 101.200
72.82000 113.000
73.23000 175.000
73.64000 157.600
74.05000 99.000
74.46000 164.200
74.87000 105.000
75.28000 90.900
75.69000 106.600
76.10000 287.200
76.51000 114.200
76.92000 98.100
77.33000 105.300
77.74000 130.700
78.15000 138.700
78.56000 212.500
78.97000 165.900
79.38000 99.000
79.79000 98.300
80.20000 112.300
80.61000 198.000
81.02000 136.700
81.43000 339.900
81.84000 113.000
82.25000 101.600
82.66000 100.400
83.07000 151.300
83.48000 138.700
83.89000 140.500
84.30000 130.000
84.71000 112.900
85.12000 97.800
85.53000 98.500
85.94000 115.900
86.35000 177.700
86.76000 109.100
87.17000 117.100
87.58000 98.900
87.99000 102.600
88.40000 96.700
88.81000 130.700
89.22000 259.900
89.63000 115.700
90.04000 115.000
90.45000 102.500
90.86000 117.100
91.27000 115.300
91.68000 119.700
92.09000 122.900
92.50000 106.400
92.91000 111.200
93.32000 100.800
93.73000 113.700
94.14000 289.800
94.55000 155.100
94.96000 102.000
95.37000 86.900
95.78000 121.800
96.19000 116.400
96.60000 131.900
97.01000 114.500
97.42000 95.300
97.83000 107.100
98.24000 100.700
98.65000 160.600
99.06000 191.500
99.47000 445.100
99.88000 139.100
100.29 119.400
100.7 141.500
101.11 109.500
101.52 179.800
101.93 189.400
102.34 113.600
102.75 84.900
103.16 111.700
103.57 109.500
103.98 86.300
104.39 90.300
104.8 88.300
105.21 87.700
105.62 83.600
106.03 92.100
106.44 104.500
106.85 116.900
107.26 173.100
107.67 108.100
108.08 111.000
108.49 138.000
108.9 89.800
109.31 98.500
109.72 137.200
110.13 250.000
110.54 97.500
110.95 99.800
111.36 120.300
111.77 108.200
112.18 121.300
112.59 100.400
113 95.400
113.41 88.700
113.82 87.100
114.23 106.800
114.64 107.700
115.05 115.500
115.46 150.900
115.87 111.500
116.28 110.400
116.69 121.400
117.1 93.000
117.51 100.200
117.92 112.400
118.33 129.400
118.74 100.700
119.15 93.300
119.56 90.100
119.97 84.900
120.38 110.300
120.79 106.600
121.2 148.600
121.61 180.500
122.02 89.500
122.43 104.800
122.84 105.500
123.25 130.200
123.66 120.900
124.07 112.200
124.48 163.900
124.89 83.400
125.3 111.900
125.71 96.500
126.12 93.600
126.53 91.900
126.94 76.900
127.35 96.400
127.76 112.300
128.17 76.000
128.58 88.800
128.99 86.800
129.4 95.100
129.81 86.800
130.22 119.100
130.63 90.400
131 110.500