File: Data/Materials_HUB_Synchrotron_XRD/MQ135_XRD.xy
10.00000 2708.900
10.42000 2523.500
10.84000 2339.300
11.26000 1992.000
11.68000 1897.400
12.10000 1733.700
12.52000 1552.900
12.94000 2375.500
13.36000 1545.600
13.78000 1477.600
14.20000 1382.700
14.62000 1438.800
15.04000 1487.600
15.46000 2417.600
15.88000 1648.300
16.30000 1611.500
16.72000 1629.500
17.14000 1746.600
17.56000 1905.900
17.98000 2007.000
18.40000 1970.900
18.82000 2550.400
19.24000 2025.300
19.66000 2194.400
20.08000 1907.900
20.50000 1729.600
20.92000 1678.300
21.34000 1523.300
21.76000 1396.600
22.18000 1256.700
22.60000 1133.600
23.02000 1118.300
23.44000 1029.700
23.86000 1940.300
24.28000 949.300
24.70000 756.300
25.12000 670.200
25.54000 833.400
25.96000 1124.100
26.38000 635.300
26.80000 754.800
27.22000 779.400
27.64000 584.900
28.06000 540.000
28.48000 560.500
28.90000 501.800
29.32000 624.800
29.74000 2367.800
30.16000 1142.000
30.58000 682.200
31.00000 861.300
31.42000 574.900
31.84000 517.600
32.26000 1058.300
32.68000 631.800
33.10000 600.200
33.52000 438.600
33.94000 424.100
34.36000 413.900
34.78000 413.700
35.20000 419.800
35.62000 356.000
36.04000 405.200
36.46000 397.600
36.88000 413.800
37.30000 396.200
37.72000 397.400
38.14000 321.900
38.56000 352.500
38.98000 266.300
39.40000 312.600
39.82000 329.200
40.24000 232.600
40.66000 254.100
41.08000 216.000
41.50000 202.200
41.92000 268.200
42.34000 209.200
42.76000 185.400
43.18000 244.800
43.60000 217.200
44.02000 299.400
44.44000 211.100
44.86000 217.500
45.28000 197.500
45.70000 189.300
46.12000 182.900
46.54000 150.400
46.96000 160.400
47.38000 158.200
47.80000 148.300
48.22000 326.500
48.64000 364.300
49.06000 225.900
49.48000 235.700
49.90000 287.400
50.32000 146.100
50.74000 196.400
51.16000 232.000
51.58000 218.700
52.00000 308.000
52.42000 235.300
52.84000 187.400
53.26000 280.200
53.68000 322.000
54.10000 527.500
54.52000 237.700
54.94000 194.800
55.36000 164.700
55.78000 162.600
56.20000 183.500
56.62000 200.700
57.04000 249.300
57.46000 161.300
57.88000 187.800
58.30000 160.400
58.72000 177.600
59.14000 247.400
59.56000 266.300
59.98000 233.300
60.40000 178.000
60.82000 173.500
61.24000 177.800
61.66000 154.800
62.08000 187.900
62.50000 198.900
62.92000 180.900
63.34000 185.600
63.76000 191.200
64.18000 192.600
64.60000 164.300
65.02000 187.300
65.44000 167.700
65.86000 144.700
66.28000 155.700
66.70000 135.700
67.12000 120.300
67.54000 152.500
67.96000 125.800
68.38000 118.700
68.80000 157.300
69.22000 164.500
69.64000 145.400
70.06000 123.000
70.48000 123.100
70.90000 125.900
71.32000 117.700
71.74000 103.300
72.16000 98.400
72.58000 103.100
73.00000 95.100
73.42000 135.200
73.84000 136.300
74.26000 108.600
74.68000 154.200
75.10000 145.000
75.52000 123.900
75.94000 102.500
76.36000 123.700
76.78000 116.600
77.20000 102.200
77.62000 103.600
78.04000 118.600
78.46000 119.000
78.88000 125.300
79.30000 123.700
79.72000 138.900
80.14000 114.800
80.56000 109.300
80.98000 121.700
81.40000 118.100
81.82000 114.700
82.24000 109.800
82.66000 109.100
83.08000 99.700
83.50000 112.700
83.92000 94.300
84.34000 112.000
84.76000 101.300
85.18000 115.900
85.60000 129.600
86.02000 137.000
86.44000 143.200
86.86000 122.100
87.28000 140.300
87.70000 110.500
88.12000 109.900
88.54000 103.700
88.96000 121.100
89.38000 115.100
89.80000 136.500
90.22000 112.600
90.64000 121.000
91.06000 106.600
91.48000 97.200
91.90000 112.600
92.32000 103.000
92.74000 113.600
93.16000 110.100
93.58000 107.800
94.00000 106.000
94.42000 114.500
94.84000 102.300
95.26000 109.800
95.68000 104.900
96.10000 107.400
96.52000 115.500
96.94000 104.100
97.36000 106.900
97.78000 92.600
98.20000 101.400
98.62000 124.100
99.04000 123.700
99.46000 128.900
99.88000 89.500
100.3 100.800
100.72 100.000
101.14 113.700
101.56 129.000
101.98 136.200
102.4 117.200
102.82 126.000
103.24 121.800
103.66 105.700
104.08 103.800
104.5 96.300
104.92 113.200
105.34 132.900
105.76 107.700
106.18 100.200
106.6 93.100
107.02 105.200
107.44 103.500
107.86 101.800
108.28 102.700
108.7 111.200
109.12 106.700
109.54 83.300
109.96 103.200
110.38 87.000
110.8 102.400
111.22 103.000
111.64 116.100
112.06 98.000
112.48 112.600
112.9 115.500
113.32 96.000
113.74 94.900
114.16 107.800
114.58 106.600
115 75.400
115.42 106.600
115.84 91.600
116.26 104.900
116.68 95.800
117.1 91.900
117.52 104.100
117.94 100.600
118.36 107.400
118.78 118.500
119.2 93.400
119.62 92.200
120.04 87.200
120.46 107.800
120.88 99.200
121.3 95.000
121.72 101.700
122.14 97.100
122.56 103.700
122.98 93.100
123.4 99.600
123.82 96.500
124.24 96.400
124.66 107.100
125.08 101.800
125.5 92.400
125.92 99.100
126.34 107.900
126.76 109.800
127.18 93.000
127.6 105.900
128.02 106.200
128.44 96.600
128.86 99.700
129.28 105.200
129.7 89.300
130.12 106.300
130.54 96.300
130.96 93.300
131 101.100