File: Data/Materials_HUB_Synchrotron_XRD/MQ50_XRD.xy
10.00000 2824.200
10.42000 2401.400
10.84000 2225.700
11.26000 1958.300
11.68000 1815.600
12.10000 1690.900
12.52000 1577.800
12.94000 1863.200
13.36000 1492.700
13.78000 1458.400
14.20000 1393.700
14.62000 1451.300
15.04000 1442.100
15.46000 2104.000
15.88000 1591.000
16.30000 1630.500
16.72000 1798.800
17.14000 1730.900
17.56000 1948.600
17.98000 1968.200
18.40000 2068.200
18.82000 2348.600
19.24000 2018.200
19.66000 2194.000
20.08000 1896.500
20.50000 1764.200
20.92000 1680.300
21.34000 1536.700
21.76000 1401.300
22.18000 1284.500
22.60000 1195.400
23.02000 1088.300
23.44000 1120.900
23.86000 1681.100
24.28000 1062.600
24.70000 802.800
25.12000 802.100
25.54000 840.000
25.96000 1301.700
26.38000 660.700
26.80000 762.700
27.22000 822.100
27.64000 594.800
28.06000 570.100
28.48000 536.000
28.90000 591.700
29.32000 696.800
29.74000 2508.200
30.16000 1328.500
30.58000 704.800
31.00000 1011.900
31.42000 665.200
31.84000 613.200
32.26000 1071.700
32.68000 682.700
33.10000 662.700
33.52000 512.000
33.94000 457.800
34.36000 461.900
34.78000 487.600
35.20000 441.300
35.62000 417.900
36.04000 443.000
36.46000 378.900
36.88000 435.600
37.30000 420.200
37.72000 394.700
38.14000 333.100
38.56000 337.100
38.98000 311.100
39.40000 312.600
39.82000 326.200
40.24000 277.900
40.66000 260.800
41.08000 255.800
41.50000 178.700
41.92000 266.900
42.34000 231.100
42.76000 195.400
43.18000 283.100
43.60000 235.000
44.02000 277.900
44.44000 205.600
44.86000 196.900
45.28000 198.000
45.70000 257.300
46.12000 207.700
46.54000 148.800
46.96000 192.000
47.38000 183.800
47.80000 158.900
48.22000 296.200
48.64000 347.900
49.06000 251.300
49.48000 226.900
49.90000 266.100
50.32000 174.700
50.74000 212.400
51.16000 281.700
51.58000 327.600
52.00000 385.300
52.42000 273.700
52.84000 248.200
53.26000 321.500
53.68000 321.700
54.10000 557.500
54.52000 279.100
54.94000 203.400
55.36000 196.300
55.78000 195.100
56.20000 222.300
56.62000 231.300
57.04000 238.800
57.46000 169.000
57.88000 193.900
58.30000 216.200
58.72000 223.900
59.14000 328.100
59.56000 297.200
59.98000 249.100
60.40000 232.100
60.82000 214.700
61.24000 166.400
61.66000 229.700
62.08000 211.900
62.50000 221.500
62.92000 238.300
63.34000 205.800
63.76000 216.100
64.18000 236.700
64.60000 194.500
65.02000 185.100
65.44000 196.000
65.86000 165.400
66.28000 190.400
66.70000 139.600
67.12000 138.600
67.54000 138.900
67.96000 158.400
68.38000 160.700
68.80000 175.700
69.22000 158.500
69.64000 163.000
70.06000 143.600
70.48000 133.600
70.90000 139.300
71.32000 159.000
71.74000 155.200
72.16000 132.000
72.58000 133.000
73.00000 119.000
73.42000 137.800
73.84000 156.800
74.26000 145.400
74.68000 151.000
75.10000 191.200
75.52000 153.000
75.94000 148.300
76.36000 137.100
76.78000 114.700
77.20000 115.200
77.62000 111.200
78.04000 133.400
78.46000 138.600
78.88000 149.000
79.30000 124.000
79.72000 154.500
80.14000 149.200
80.56000 155.400
80.98000 151.000
81.40000 127.300
81.82000 117.600
82.24000 133.200
82.66000 123.700
83.08000 119.800
83.50000 114.500
83.92000 137.700
84.34000 119.000
84.76000 169.100
85.18000 147.100
85.60000 169.900
86.02000 170.100
86.44000 166.500
86.86000 124.300
87.28000 134.200
87.70000 142.700
88.12000 138.100
88.54000 161.600
88.96000 133.700
89.38000 139.700
89.80000 158.100
90.22000 123.300
90.64000 146.600
91.06000 114.300
91.48000 120.700
91.90000 108.300
92.32000 116.900
92.74000 138.600
93.16000 121.900
93.58000 142.000
94.00000 163.500
94.42000 132.000
94.84000 121.500
95.26000 154.500
95.68000 152.100
96.10000 141.300
96.52000 132.100
96.94000 119.900
97.36000 141.400
97.78000 154.200
98.20000 137.400
98.62000 144.400
99.04000 151.700
99.46000 160.000
99.88000 129.300
100.3 139.300
100.72 135.700
101.14 156.800
101.56 140.100
101.98 144.200
102.4 163.000
102.82 161.500
103.24 138.000
103.66 156.500
104.08 140.900
104.5 144.000
104.92 133.200
105.34 143.000
105.76 109.300
106.18 148.000
106.6 130.100
107.02 124.800
107.44 161.100
107.86 124.500
108.28 125.900
108.7 137.300
109.12 118.400
109.54 120.000
109.96 132.400
110.38 131.000
110.8 136.500
111.22 149.500
111.64 129.900
112.06 149.600
112.48 115.900
112.9 147.700
113.32 131.700
113.74 135.200
114.16 113.100
114.58 137.200
115 127.500
115.42 131.500
115.84 95.700
116.26 137.300
116.68 122.000
117.1 109.000
117.52 106.100
117.94 96.400
118.36 134.000
118.78 117.900
119.2 133.300
119.62 114.200
120.04 131.100
120.46 121.600
120.88 136.400
121.3 136.900
121.72 121.100
122.14 129.800
122.56 137.900
122.98 149.200
123.4 116.800
123.82 146.200
124.24 136.100
124.66 121.300
125.08 133.100
125.5 129.000
125.92 131.500
126.34 144.200
126.76 143.200
127.18 137.900
127.6 149.100
128.02 144.900
128.44 114.500
128.86 136.700
129.28 122.100
129.7 137.100
130.12 143.900
130.54 116.500
130.96 126.400
131 135.300