File: Data/Materials_HUB_Synchrotron_XRD/MQ51_XRD.xy
10.00000 2696.200
10.42000 2578.100
10.84000 2290.400
11.26000 1872.800
11.68000 1876.600
12.10000 1669.300
12.52000 1701.800
12.94000 2176.000
13.36000 1497.500
13.78000 1350.700
14.20000 1477.600
14.62000 1498.600
15.04000 1429.900
15.46000 1926.500
15.88000 1569.700
16.30000 1558.400
16.72000 1679.300
17.14000 1747.200
17.56000 1847.900
17.98000 2108.600
18.40000 2423.700
18.82000 2261.900
19.24000 1988.200
19.66000 2243.900
20.08000 2141.400
20.50000 1834.200
20.92000 1752.700
21.34000 1539.200
21.76000 1470.000
22.18000 1283.400
22.60000 1201.000
23.02000 1111.400
23.44000 1194.000
23.86000 1976.500
24.28000 1043.900
24.70000 823.700
25.12000 722.200
25.54000 837.300
25.96000 1132.700
26.38000 672.200
26.80000 730.600
27.22000 640.900
27.64000 633.900
28.06000 582.000
28.48000 595.400
28.90000 554.000
29.32000 684.100
29.74000 2799.800
30.16000 1458.700
30.58000 685.500
31.00000 956.600
31.42000 650.700
31.84000 488.500
32.26000 712.100
32.68000 486.800
33.10000 583.000
33.52000 459.500
33.94000 438.000
34.36000 408.100
34.78000 486.800
35.20000 399.200
35.62000 398.000
36.04000 428.300
36.46000 418.800
36.88000 448.300
37.30000 417.900
37.72000 414.500
38.14000 360.700
38.56000 282.400
38.98000 297.600
39.40000 289.600
39.82000 375.900
40.24000 286.900
40.66000 226.800
41.08000 231.800
41.50000 224.700
41.92000 183.200
42.34000 250.600
42.76000 213.700
43.18000 259.200
43.60000 243.700
44.02000 278.500
44.44000 229.100
44.86000 210.000
45.28000 185.800
45.70000 257.300
46.12000 180.100
46.54000 163.700
46.96000 171.100
47.38000 157.000
47.80000 174.300
48.22000 288.800
48.64000 357.400
49.06000 302.000
49.48000 217.200
49.90000 203.100
50.32000 150.600
50.74000 178.000
51.16000 216.100
51.58000 177.200
52.00000 206.100
52.42000 210.900
52.84000 234.500
53.26000 306.200
53.68000 303.700
54.10000 452.000
54.52000 259.500
54.94000 205.000
55.36000 169.200
55.78000 198.700
56.20000 183.000
56.62000 218.600
57.04000 226.500
57.46000 171.300
57.88000 203.700
58.30000 173.100
58.72000 168.400
59.14000 210.900
59.56000 200.100
59.98000 203.300
60.40000 214.700
60.82000 190.100
61.24000 175.000
61.66000 167.300
62.08000 179.500
62.50000 193.700
62.92000 167.300
63.34000 159.100
63.76000 210.900
64.18000 179.700
64.60000 191.500
65.02000 155.100
65.44000 209.600
65.86000 166.200
66.28000 151.800
66.70000 150.500
67.12000 110.600
67.54000 142.800
67.96000 128.200
68.38000 129.600
68.80000 154.400
69.22000 170.000
69.64000 136.100
70.06000 115.200
70.48000 140.800
70.90000 128.100
71.32000 151.000
71.74000 117.600
72.16000 112.200
72.58000 118.700
73.00000 97.200
73.42000 113.900
73.84000 144.800
74.26000 129.800
74.68000 142.400
75.10000 157.200
75.52000 118.800
75.94000 100.000
76.36000 92.300
76.78000 114.500
77.20000 107.600
77.62000 119.600
78.04000 111.300
78.46000 133.300
78.88000 110.000
79.30000 123.800
79.72000 112.600
80.14000 99.400
80.56000 122.500
80.98000 101.200
81.40000 110.700
81.82000 111.400
82.24000 91.900
82.66000 78.700
83.08000 92.700
83.50000 110.800
83.92000 103.700
84.34000 111.900
84.76000 99.700
85.18000 114.600
85.60000 125.000
86.02000 124.500
86.44000 136.500
86.86000 128.900
87.28000 109.000
87.70000 129.000
88.12000 117.400
88.54000 109.800
88.96000 123.100
89.38000 121.700
89.80000 114.400
90.22000 143.900
90.64000 108.900
91.06000 122.100
91.48000 118.700
91.90000 98.900
92.32000 91.700
92.74000 120.500
93.16000 117.500
93.58000 112.900
94.00000 108.200
94.42000 113.600
94.84000 110.600
95.26000 117.600
95.68000 118.400
96.10000 117.200
96.52000 112.300
96.94000 104.200
97.36000 101.700
97.78000 119.700
98.20000 100.200
98.62000 119.300
99.04000 124.200
99.46000 100.800
99.88000 116.300
100.3 114.200
100.72 103.900
101.14 122.300
101.56 116.700
101.98 136.800
102.4 113.800
102.82 131.600
103.24 127.300
103.66 114.600
104.08 103.000
104.5 130.000
104.92 108.400
105.34 98.600
105.76 101.400
106.18 122.100
106.6 109.600
107.02 119.700
107.44 92.700
107.86 128.500
108.28 106.500
108.7 107.000
109.12 118.300
109.54 106.600
109.96 111.800
110.38 113.200
110.8 115.000
111.22 102.600
111.64 103.900
112.06 95.600
112.48 98.600
112.9 95.600
113.32 127.700
113.74 117.100
114.16 122.900
114.58 95.100
115 86.400
115.42 121.000
115.84 95.700
116.26 96.800
116.68 102.200
117.1 87.900
117.52 87.800
117.94 88.500
118.36 100.100
118.78 86.200
119.2 99.300
119.62 92.900
120.04 86.800
120.46 94.600
120.88 77.700
121.3 94.200
121.72 114.200
122.14 98.800
122.56 79.400
122.98 97.600
123.4 81.900
123.82 86.700
124.24 84.900
124.66 92.300
125.08 112.300
125.5 88.500
125.92 101.500
126.34 103.400
126.76 94.300
127.18 98.600
127.6 104.100
128.02 78.200
128.44 99.200
128.86 114.900
129.28 107.600
129.7 96.700
130.12 113.300
130.54 102.700
130.96 118.300
131 120.400