File: Data/Materials_HUB_Synchrotron_XRD/MQ53_XRD.xy
10.00000 2771.300
10.42000 2462.700
10.84000 2192.100
11.26000 1973.700
11.68000 1937.200
12.10000 1711.200
12.52000 1651.800
12.94000 2339.900
13.36000 1492.400
13.78000 1370.100
14.20000 1376.300
14.62000 1500.200
15.04000 1420.400
15.46000 2353.800
15.88000 1550.200
16.30000 1625.700
16.72000 1661.200
17.14000 1779.900
17.56000 1859.400
17.98000 1933.300
18.40000 2068.600
18.82000 2354.900
19.24000 1987.300
19.66000 2219.600
20.08000 1968.800
20.50000 1727.100
20.92000 1635.000
21.34000 1520.400
21.76000 1467.300
22.18000 1269.900
22.60000 1185.500
23.02000 1039.600
23.44000 1113.100
23.86000 2101.900
24.28000 948.500
24.70000 805.800
25.12000 763.100
25.54000 932.300
25.96000 1084.400
26.38000 661.300
26.80000 733.000
27.22000 856.100
27.64000 599.700
28.06000 507.800
28.48000 570.000
28.90000 546.600
29.32000 603.700
29.74000 2263.300
30.16000 1171.400
30.58000 647.700
31.00000 883.900
31.42000 687.100
31.84000 616.700
32.26000 975.800
32.68000 694.000
33.10000 649.100
33.52000 426.700
33.94000 455.700
34.36000 411.500
34.78000 428.900
35.20000 454.700
35.62000 415.300
36.04000 387.800
36.46000 443.600
36.88000 496.800
37.30000 396.500
37.72000 428.400
38.14000 359.100
38.56000 342.000
38.98000 306.600
39.40000 293.600
39.82000 333.500
40.24000 242.300
40.66000 257.800
41.08000 219.200
41.50000 224.200
41.92000 251.500
42.34000 207.600
42.76000 184.300
43.18000 250.600
43.60000 264.000
44.02000 305.900
44.44000 205.300
44.86000 210.800
45.28000 190.800
45.70000 255.100
46.12000 218.700
46.54000 154.300
46.96000 182.800
47.38000 184.000
47.80000 175.000
48.22000 345.800
48.64000 329.200
49.06000 239.200
49.48000 234.200
49.90000 248.500
50.32000 161.900
50.74000 194.000
51.16000 215.700
51.58000 267.400
52.00000 315.100
52.42000 258.200
52.84000 182.700
53.26000 276.300
53.68000 340.500
54.10000 538.900
54.52000 229.500
54.94000 202.500
55.36000 210.800
55.78000 178.700
56.20000 184.600
56.62000 198.700
57.04000 238.800
57.46000 180.900
57.88000 167.900
58.30000 184.200
58.72000 171.500
59.14000 232.100
59.56000 262.000
59.98000 243.400
60.40000 215.500
60.82000 190.500
61.24000 194.400
61.66000 176.100
62.08000 177.400
62.50000 173.400
62.92000 199.400
63.34000 193.100
63.76000 244.700
64.18000 213.100
64.60000 177.000
65.02000 177.200
65.44000 194.800
65.86000 155.100
66.28000 147.400
66.70000 123.400
67.12000 116.400
67.54000 125.400
67.96000 151.600
68.38000 138.100
68.80000 150.000
69.22000 159.700
69.64000 137.500
70.06000 118.100
70.48000 142.300
70.90000 123.300
71.32000 141.700
71.74000 121.700
72.16000 106.400
72.58000 91.800
73.00000 119.600
73.42000 124.800
73.84000 137.500
74.26000 134.700
74.68000 128.000
75.10000 164.600
75.52000 125.500
75.94000 104.000
76.36000 121.500
76.78000 115.000
77.20000 117.900
77.62000 129.000
78.04000 104.900
78.46000 129.200
78.88000 139.600
79.30000 126.900
79.72000 128.000
80.14000 112.300
80.56000 105.700
80.98000 116.200
81.40000 117.500
81.82000 122.100
82.24000 108.000
82.66000 97.700
83.08000 88.200
83.50000 95.200
83.92000 91.300
84.34000 126.900
84.76000 115.400
85.18000 141.400
85.60000 138.000
86.02000 129.000
86.44000 120.300
86.86000 115.100
87.28000 135.800
87.70000 137.100
88.12000 129.800
88.54000 125.200
88.96000 110.300
89.38000 115.800
89.80000 123.700
90.22000 118.600
90.64000 120.600
91.06000 124.500
91.48000 117.500
91.90000 107.700
92.32000 96.400
92.74000 111.900
93.16000 99.800
93.58000 128.200
94.00000 120.900
94.42000 107.000
94.84000 121.800
95.26000 109.200
95.68000 101.800
96.10000 108.800
96.52000 124.400
96.94000 114.400
97.36000 116.600
97.78000 116.700
98.20000 113.700
98.62000 124.300
99.04000 136.100
99.46000 130.300
99.88000 133.900
100.3 115.600
100.72 124.000
101.14 146.800
101.56 148.300
101.98 128.500
102.4 132.500
102.82 148.200
103.24 136.400
103.66 139.800
104.08 132.900
104.5 99.800
104.92 113.000
105.34 106.900
105.76 138.000
106.18 121.500
106.6 126.500
107.02 120.100
107.44 109.500
107.86 104.700
108.28 103.900
108.7 106.500
109.12 118.700
109.54 116.100
109.96 123.000
110.38 104.300
110.8 99.800
111.22 105.200
111.64 109.100
112.06 113.000
112.48 118.800
112.9 95.700
113.32 95.400
113.74 112.600
114.16 103.100
114.58 135.900
115 116.200
115.42 102.000
115.84 96.500
116.26 111.600
116.68 124.100
117.1 95.400
117.52 106.200
117.94 88.900
118.36 100.000
118.78 96.400
119.2 91.900
119.62 108.400
120.04 89.200
120.46 92.900
120.88 105.700
121.3 105.100
121.72 92.800
122.14 112.200
122.56 109.900
122.98 108.700
123.4 105.800
123.82 116.400
124.24 111.300
124.66 91.200
125.08 98.600
125.5 97.800
125.92 123.400
126.34 118.200
126.76 107.100
127.18 98.400
127.6 103.700
128.02 126.700
128.44 112.100
128.86 100.300
129.28 105.900
129.7 96.800
130.12 105.800
130.54 100.300
130.96 86.500
131 110.900