File: Data/Materials_HUB_Synchrotron_XRD/Noh_Li3InCl6_400C_natural cooling_XRD.xy
10.00000 1934.800
10.40500 1764.700
10.81000 1526.300
11.21500 1390.400
11.62000 1448.200
12.02500 1162.300
12.43000 1226.100
12.83500 1088.600
13.24000 1060.100
13.64500 969.700
14.05000 1089.100
14.45500 1026.200
14.86000 1307.500
15.26500 1105.400
15.67000 1139.600
16.07500 1415.400
16.48000 1291.400
16.88500 1218.700
17.29000 1338.900
17.69500 1424.800
18.10000 1492.400
18.50500 1495.400
18.91000 1539.700
19.31500 1454.000
19.72000 1482.100
20.12500 1422.600
20.53000 1371.500
20.93500 1201.800
21.34000 1199.300
21.74500 1142.700
22.15000 912.400
22.55500 879.500
22.96000 767.100
23.36500 699.900
23.77000 649.500
24.17500 639.800
24.58000 583.500
24.98500 542.200
25.39000 508.500
25.79500 569.800
26.20000 427.100
26.60500 457.600
27.01000 399.300
27.41500 438.600
27.82000 386.200
28.22500 411.500
28.63000 397.400
29.03500 359.900
29.44000 373.300
29.84500 707.900
30.25000 318.600
30.65500 263.000
31.06000 304.000
31.46500 296.400
31.87000 272.800
32.27500 295.600
32.68000 344.500
33.08500 274.800
33.49000 264.700
33.89500 289.300
34.30000 459.300
34.70500 353.900
35.11000 238.300
35.51500 233.600
35.92000 218.000
36.32500 205.200
36.73000 164.100
37.13500 200.400
37.54000 186.200
37.94500 151.200
38.35000 150.500
38.75500 263.700
39.16000 133.500
39.56500 138.900
39.97000 95.500
40.37500 100.800
40.78000 103.600
41.18500 107.800
41.59000 88.900
41.99500 80.500
42.40000 101.100
42.80500 82.600
43.21000 161.100
43.61500 193.100
44.02000 88.100
44.42500 101.000
44.83000 79.300
45.23500 227.700
45.64000 91.300
46.04500 119.100
46.45000 69.700
46.85500 74.300
47.26000 72.500
47.66500 73.100
48.07000 288.400
48.47500 297.000
48.88000 83.600
49.28500 142.800
49.69000 955.800
50.09500 88.900
50.50000 164.800
50.90500 72.200
51.31000 66.500
51.71500 97.700
52.12000 80.100
52.52500 86.200
52.93000 48.800
53.33500 85.900
53.74000 77.700
54.14500 68.700
54.55000 61.600
54.95500 65.700
55.36000 53.100
55.76500 44.200
56.17000 61.500
56.57500 65.700
56.98000 72.300
57.38500 45.900
57.79000 56.900
58.19500 64.400
58.60000 72.100
59.00500 84.900
59.41000 60.400
59.81500 49.500
60.22000 54.500
60.62500 164.100
61.03000 73.600
61.43500 104.400
61.84000 107.900
62.24500 87.000
62.65000 56.800
63.05500 46.600
63.46000 66.900
63.86500 161.000
64.27000 73.800
64.67500 102.200
65.08000 58.000
65.48500 48.200
65.89000 49.900
66.29500 94.000
66.70000 54.900
67.10500 46.100
67.51000 42.800
67.91500 60.800
68.32000 52.300
68.72500 90.900
69.13000 54.900
69.53500 50.100
69.94000 64.400
70.34500 48.700
70.75000 41.500
71.15500 44.200
71.56000 56.100
71.96500 52.300
72.37000 213.500
72.77500 402.300
73.18000 75.600
73.58500 66.000
73.99000 52.200
74.39500 55.400
74.80000 75.100
75.20500 51.600
75.61000 70.600
76.01500 104.700
76.42000 47.800
76.82500 70.900
77.23000 43.000
77.63500 39.500
78.04000 67.300
78.44500 81.300
78.85000 57.000
79.25500 56.400
79.66000 78.400
80.06500 144.200
80.47000 61.900
80.87500 58.500
81.28000 64.900
81.68500 53.400
82.09000 60.300
82.49500 122.400
82.90000 556.900
83.30500 194.900
83.71000 72.200
84.11500 55.200
84.52000 71.200
84.92500 84.700
85.33000 78.300
85.73500 60.600
86.14000 45.600
86.54500 52.500
86.95000 73.800
87.35500 57.500
87.76000 51.800
88.16500 43.600
88.57000 72.700
88.97500 83.500
89.38000 56.000
89.78500 116.000
90.19000 55.500
90.59500 65.300
91.00000 46.200
91.40500 49.700
91.81000 66.200
92.21500 88.400
92.62000 90.700
93.02500 281.700
93.43000 262.500
93.83500 67.700
94.24000 65.400
94.64500 69.100
95.05000 59.500
95.45500 100.700
95.86000 59.800
96.26500 51.400
96.67000 62.200
97.07500 59.800
97.48000 53.700
97.88500 50.100
98.29000 52.700
98.69500 54.500
99.10000 40.400
99.50500 63.900
99.91000 80.200
100.315 118.000
100.72 69.600
101.125 50.900
101.53 35.800
101.935 51.500
102.34 64.200
102.745 72.700
103.15 50.600
103.555 58.200
103.96 49.300
104.365 50.100
104.77 52.000
105.175 95.300
105.58 69.900
105.985 43.600
106.39 54.900
106.795 47.900
107.2 60.100
107.605 52.700
108.01 40.700
108.415 40.200
108.82 63.600
109.225 71.500
109.63 79.000
110.035 57.700
110.44 50.200
110.845 47.700
111.25 48.600
111.655 51.100
112.06 41.800
112.465 51.800
112.87 77.800
113.275 73.300
113.68 104.900
114.085 82.300
114.49 50.700
114.895 62.100
115.3 61.400
115.705 63.200
116.11 69.900
116.515 95.400
116.92 81.600
117.325 73.900
117.73 64.400
118.135 52.900
118.54 61.900
118.945 44.400
119.35 56.100
119.755 61.700
120.16 55.800
120.565 46.500
120.97 59.800
121.375 62.600
121.78 67.600
122.185 63.900
122.59 53.000
122.995 57.300
123.4 41.300
123.805 69.900
124.21 73.800
124.615 80.300
125.02 176.000
125.425 91.900
125.83 110.800
126.235 90.800
126.64 62.700
127.045 58.200
127.45 63.700
127.855 61.100
128.26 34.500
128.665 55.500
129.07 56.800
129.475 48.500
129.88 58.300
130.285 59.600
130.69 55.300
131 66.900