File: Data/Materials_HUB_Synchrotron_XRD/Noh_LiYBr6_500C_natural cooling_XRD.xy
10.00000 1036.300
10.40500 820.700
10.81000 730.500
11.21500 735.200
11.62000 637.100
12.02500 563.200
12.43000 589.200
12.83500 507.000
13.24000 534.300
13.64500 521.600
14.05000 481.600
14.45500 521.000
14.86000 1911.800
15.26500 609.800
15.67000 576.800
16.07500 526.600
16.48000 593.500
16.88500 589.300
17.29000 703.800
17.69500 716.300
18.10000 627.400
18.50500 746.400
18.91000 674.100
19.31500 712.100
19.72000 640.400
20.12500 686.900
20.53000 638.800
20.93500 552.600
21.34000 567.300
21.74500 456.700
22.15000 470.200
22.55500 453.300
22.96000 397.200
23.36500 390.500
23.77000 404.400
24.17500 320.900
24.58000 286.000
24.98500 278.900
25.39000 301.900
25.79500 232.800
26.20000 314.000
26.60500 237.300
27.01000 222.400
27.41500 654.800
27.82000 418.000
28.22500 278.800
28.63000 198.000
29.03500 205.800
29.44000 194.700
29.84500 178.500
30.25000 226.700
30.65500 177.400
31.06000 178.100
31.46500 205.000
31.87000 6135.400
32.27500 216.900
32.68000 266.200
33.08500 240.800
33.49000 123.700
33.89500 129.400
34.30000 154.100
34.70500 145.500
35.11000 158.300
35.51500 113.500
35.92000 272.100
36.32500 127.700
36.73000 118.700
37.13500 99.000
37.54000 97.900
37.94500 99.000
38.35000 73.200
38.75500 74.500
39.16000 56.400
39.56500 72.900
39.97000 86.200
40.37500 105.600
40.78000 80.700
41.18500 79.200
41.59000 68.800
41.99500 271.900
42.40000 175.800
42.80500 44.500
43.21000 62.000
43.61500 44.500
44.02000 53.000
44.42500 79.800
44.83000 77.600
45.23500 77.000
45.64000 1933.500
46.04500 288.900
46.45000 70.700
46.85500 140.100
47.26000 65.400
47.66500 56.100
48.07000 46.500
48.47500 49.400
48.88000 41.800
49.28500 82.000
49.69000 97.700
50.09500 52.600
50.50000 47.000
50.90500 45.400
51.31000 42.500
51.71500 51.100
52.12000 56.700
52.52500 55.800
52.93000 38.800
53.33500 88.900
53.74000 66.900
54.14500 971.800
54.55000 1223.300
54.95500 60.200
55.36000 59.500
55.76500 113.400
56.17000 83.100
56.57500 105.400
56.98000 78.400
57.38500 143.500
57.79000 50.800
58.19500 70.200
58.60000 39.700
59.00500 79.600
59.41000 70.300
59.81500 46.800
60.22000 55.200
60.62500 47.500
61.03000 47.000
61.43500 47.200
61.84000 36.500
62.24500 58.600
62.65000 50.800
63.05500 62.000
63.46000 49.000
63.86500 46.400
64.27000 40.400
64.67500 44.100
65.08000 45.300
65.48500 51.200
65.89000 65.300
66.29500 44.300
66.70000 287.400
67.10500 55.900
67.51000 46.200
67.91500 48.000
68.32000 41.100
68.72500 56.700
69.13000 60.100
69.53500 47.000
69.94000 52.000
70.34500 55.100
70.75000 51.900
71.15500 51.800
71.56000 58.400
71.96500 62.400
72.37000 61.700
72.77500 78.200
73.18000 81.700
73.58500 84.200
73.99000 90.400
74.39500 51.200
74.80000 67.600
75.20500 80.000
75.61000 537.600
76.01500 602.500
76.42000 81.600
76.82500 66.400
77.23000 65.800
77.63500 62.900
78.04000 80.000
78.44500 57.700
78.85000 73.600
79.25500 65.800
79.66000 62.500
80.06500 72.000
80.47000 48.900
80.87500 45.900
81.28000 64.400
81.68500 60.500
82.09000 57.600
82.49500 57.300
82.90000 65.800
83.30500 57.400
83.71000 71.600
84.11500 106.500
84.52000 394.400
84.92500 55.800
85.33000 476.500
85.73500 68.100
86.14000 74.600
86.54500 58.900
86.95000 59.100
87.35500 60.300
87.76000 55.900
88.16500 50.300
88.57000 54.800
88.97500 52.500
89.38000 56.700
89.78500 35.700
90.19000 47.700
90.59500 50.400
91.00000 245.500
91.40500 66.100
91.81000 60.300
92.21500 45.600
92.62000 46.700
93.02500 52.300
93.43000 53.400
93.83500 46.800
94.24000 40.400
94.64500 59.300
95.05000 91.400
95.45500 51.800
95.86000 54.800
96.26500 33.900
96.67000 40.500
97.07500 38.500
97.48000 57.100
97.88500 46.100
98.29000 41.800
98.69500 45.900
99.10000 41.300
99.50500 42.400
99.91000 36.200
100.315 49.900
100.72 52.400
101.125 54.900
101.53 206.600
101.935 67.600
102.34 58.900
102.745 94.300
103.15 70.800
103.555 46.200
103.96 48.500
104.365 53.700
104.77 72.900
105.175 63.000
105.58 51.600
105.985 41.800
106.39 63.500
106.795 57.100
107.2 49.200
107.605 66.000
108.01 70.500
108.415 119.800
108.82 78.800
109.225 75.600
109.63 105.300
110.035 61.800
110.44 97.100
110.845 136.500
111.25 192.600
111.655 61.600
112.06 99.100
112.465 58.800
112.87 49.500
113.275 41.800
113.68 62.300
114.085 39.100
114.49 49.200
114.895 45.400
115.3 57.000
115.705 51.000
116.11 57.700
116.515 59.200
116.92 44.600
117.325 51.300
117.73 59.900
118.135 64.300
118.54 42.100
118.945 53.400
119.35 50.000
119.755 64.500
120.16 77.900
120.565 152.100
120.97 90.400
121.375 175.700
121.78 58.000
122.185 54.000
122.59 70.300
122.995 55.800
123.4 46.700
123.805 49.100
124.21 60.800
124.615 43.800
125.02 58.000
125.425 54.200
125.83 53.400
126.235 55.100
126.64 53.400
127.045 54.600
127.45 47.900
127.855 49.400
128.26 94.600
128.665 57.200
129.07 49.100
129.475 54.700
129.88 49.000
130.285 92.100
130.69 63.000
131 104.300