File: Data/Materials_HUB_Synchrotron_XRD/shinj_1_1_XRD.xy
10.00000 5471.300
10.42000 4553.200
10.84000 4089.800
11.26000 3916.500
11.68000 3515.400
12.10000 3168.400
12.52000 2900.200
12.94000 4218.800
13.36000 2943.700
13.78000 2643.400
14.20000 2655.500
14.62000 2854.300
15.04000 2785.200
15.46000 3444.500
15.88000 3012.100
16.30000 2997.900
16.72000 3209.000
17.14000 3292.600
17.56000 3615.700
17.98000 4003.800
18.40000 4676.300
18.82000 4044.700
19.24000 3840.000
19.66000 4157.000
20.08000 3707.400
20.50000 3430.000
20.92000 3200.300
21.34000 2937.800
21.76000 2772.800
22.18000 2422.600
22.60000 2188.600
23.02000 2023.500
23.44000 2185.700
23.86000 3935.100
24.28000 2006.200
24.70000 1478.900
25.12000 1416.300
25.54000 1584.700
25.96000 2311.500
26.38000 1337.800
26.80000 1291.900
27.22000 1103.000
27.64000 1142.200
28.06000 1052.400
28.48000 1053.000
28.90000 1039.500
29.32000 1154.800
29.74000 5791.400
30.16000 2654.500
30.58000 1437.000
31.00000 1978.800
31.42000 1289.300
31.84000 1004.900
32.26000 1356.700
32.68000 1017.100
33.10000 1190.500
33.52000 888.500
33.94000 772.400
34.36000 767.000
34.78000 872.900
35.20000 758.600
35.62000 676.300
36.04000 732.600
36.46000 766.400
36.88000 715.300
37.30000 755.100
37.72000 740.800
38.14000 662.400
38.56000 556.300
38.98000 474.400
39.40000 516.700
39.82000 579.500
40.24000 477.100
40.66000 420.600
41.08000 369.000
41.50000 359.700
41.92000 431.900
42.34000 383.500
42.76000 423.100
43.18000 531.600
43.60000 444.300
44.02000 559.700
44.44000 476.400
44.86000 383.300
45.28000 385.600
45.70000 470.100
46.12000 367.400
46.54000 282.200
46.96000 359.200
47.38000 314.200
47.80000 338.300
48.22000 523.400
48.64000 701.600
49.06000 584.500
49.48000 435.800
49.90000 406.300
50.32000 327.000
50.74000 342.200
51.16000 404.400
51.58000 441.100
52.00000 452.100
52.42000 466.500
52.84000 492.500
53.26000 583.600
53.68000 683.800
54.10000 1077.600
54.52000 510.600
54.94000 379.600
55.36000 363.400
55.78000 360.100
56.20000 397.800
56.62000 383.700
57.04000 466.100
57.46000 348.000
57.88000 409.700
58.30000 342.700
58.72000 347.300
59.14000 475.500
59.56000 467.800
59.98000 448.900
60.40000 459.000
60.82000 429.500
61.24000 396.000
61.66000 334.800
62.08000 381.300
62.50000 361.600
62.92000 365.700
63.34000 382.300
63.76000 427.400
64.18000 383.400
64.60000 338.900
65.02000 361.500
65.44000 380.300
65.86000 339.100
66.28000 334.300
66.70000 273.300
67.12000 254.000
67.54000 258.300
67.96000 269.300
68.38000 275.000
68.80000 353.200
69.22000 353.200
69.64000 291.700
70.06000 256.800
70.48000 262.900
70.90000 299.100
71.32000 272.400
71.74000 282.400
72.16000 254.000
72.58000 266.300
73.00000 231.800
73.42000 274.300
73.84000 297.700
74.26000 285.300
74.68000 321.200
75.10000 265.500
75.52000 260.100
75.94000 241.600
76.36000 249.100
76.78000 236.400
77.20000 231.400
77.62000 232.200
78.04000 238.300
78.46000 243.300
78.88000 267.700
79.30000 247.600
79.72000 238.600
80.14000 237.800
80.56000 274.300
80.98000 231.900
81.40000 253.900
81.82000 253.500
82.24000 220.500
82.66000 202.400
83.08000 215.900
83.50000 232.100
83.92000 244.700
84.34000 232.800
84.76000 281.500
85.18000 288.500
85.60000 288.000
86.02000 300.300
86.44000 253.900
86.86000 310.200
87.28000 276.900
87.70000 226.500
88.12000 237.500
88.54000 249.600
88.96000 256.200
89.38000 261.500
89.80000 260.000
90.22000 274.200
90.64000 274.800
91.06000 263.000
91.48000 255.200
91.90000 257.200
92.32000 233.400
92.74000 267.500
93.16000 268.200
93.58000 285.700
94.00000 251.000
94.42000 237.200
94.84000 247.200
95.26000 234.800
95.68000 262.800
96.10000 255.900
96.52000 261.200
96.94000 250.600
97.36000 263.300
97.78000 258.000
98.20000 257.000
98.62000 257.700
99.04000 279.500
99.46000 251.400
99.88000 228.800
100.3 239.300
100.72 250.900
101.14 289.700
101.56 320.600
101.98 240.000
102.4 258.800
102.82 305.200
103.24 320.800
103.66 273.400
104.08 241.400
104.5 245.200
104.92 234.200
105.34 237.800
105.76 240.000
106.18 272.900
106.6 264.400
107.02 250.700
107.44 270.100
107.86 246.300
108.28 237.500
108.7 248.700
109.12 255.300
109.54 268.800
109.96 239.900
110.38 238.800
110.8 249.600
111.22 264.900
111.64 258.500
112.06 291.300
112.48 263.000
112.9 294.500
113.32 264.000
113.74 239.000
114.16 244.400
114.58 239.100
115 280.000
115.42 238.400
115.84 250.600
116.26 253.100
116.68 243.400
117.1 219.100
117.52 226.900
117.94 237.800
118.36 220.700
118.78 228.400
119.2 236.200
119.62 201.500
120.04 245.300
120.46 242.400
120.88 216.800
121.3 224.300
121.72 240.300
122.14 232.700
122.56 217.900
122.98 227.400
123.4 250.900
123.82 237.200
124.24 220.900
124.66 214.700
125.08 223.800
125.5 246.600
125.92 221.800
126.34 243.200
126.76 257.200
127.18 237.100
127.6 273.100
128.02 236.000
128.44 245.600
128.86 230.200
129.28 241.400
129.7 201.500
130.12 225.800
130.54 232.000
130.96 266.200
131 244.400