File: Data/Materials_HUB_Synchrotron_XRD/SJY_165_XRD.xy
10.00000 2633.200
10.42000 2522.200
10.84000 2242.000
11.26000 1970.400
11.68000 1879.700
12.10000 1686.000
12.52000 1544.300
12.94000 1975.300
13.36000 1463.000
13.78000 1447.900
14.20000 1424.900
14.62000 1465.700
15.04000 1502.100
15.46000 1674.800
15.88000 1577.200
16.30000 1641.400
16.72000 1674.700
17.14000 1605.300
17.56000 2089.900
17.98000 2089.100
18.40000 2600.700
18.82000 2099.800
19.24000 2017.200
19.66000 2113.100
20.08000 2061.100
20.50000 1737.800
20.92000 1595.600
21.34000 1582.300
21.76000 1458.500
22.18000 1314.500
22.60000 1188.800
23.02000 1060.300
23.44000 1132.600
23.86000 1702.600
24.28000 1088.300
24.70000 786.900
25.12000 714.300
25.54000 757.000
25.96000 1127.600
26.38000 770.500
26.80000 678.300
27.22000 626.100
27.64000 694.000
28.06000 560.900
28.48000 572.300
28.90000 580.700
29.32000 722.600
29.74000 1879.900
30.16000 1198.300
30.58000 719.800
31.00000 824.000
31.42000 738.500
31.84000 497.900
32.26000 610.500
32.68000 540.000
33.10000 541.900
33.52000 480.700
33.94000 434.300
34.36000 436.300
34.78000 449.100
35.20000 384.400
35.62000 414.100
36.04000 375.800
36.46000 448.100
36.88000 391.500
37.30000 404.100
37.72000 420.000
38.14000 371.000
38.56000 293.000
38.98000 346.700
39.40000 341.000
39.82000 305.600
40.24000 284.800
40.66000 278.900
41.08000 251.900
41.50000 246.900
41.92000 244.800
42.34000 253.200
42.76000 251.900
43.18000 250.100
43.60000 229.000
44.02000 242.500
44.44000 237.400
44.86000 251.600
45.28000 203.700
45.70000 254.600
46.12000 174.800
46.54000 200.500
46.96000 190.100
47.38000 168.500
47.80000 214.900
48.22000 270.600
48.64000 355.300
49.06000 313.000
49.48000 209.300
49.90000 213.800
50.32000 173.000
50.74000 194.800
51.16000 193.700
51.58000 206.300
52.00000 233.400
52.42000 232.800
52.84000 228.800
53.26000 266.600
53.68000 284.000
54.10000 379.700
54.52000 257.200
54.94000 201.600
55.36000 194.600
55.78000 202.700
56.20000 179.100
56.62000 214.400
57.04000 240.000
57.46000 189.100
57.88000 173.800
58.30000 174.100
58.72000 191.600
59.14000 211.300
59.56000 204.300
59.98000 177.400
60.40000 195.200
60.82000 192.300
61.24000 175.100
61.66000 182.100
62.08000 163.500
62.50000 184.200
62.92000 177.000
63.34000 193.600
63.76000 157.700
64.18000 198.200
64.60000 171.600
65.02000 162.000
65.44000 183.700
65.86000 154.600
66.28000 147.700
66.70000 166.200
67.12000 144.700
67.54000 132.600
67.96000 145.800
68.38000 155.300
68.80000 151.900
69.22000 159.500
69.64000 157.300
70.06000 135.200
70.48000 153.800
70.90000 122.900
71.32000 137.600
71.74000 123.800
72.16000 143.900
72.58000 127.500
73.00000 104.700
73.42000 125.800
73.84000 130.300
74.26000 134.200
74.68000 150.000
75.10000 133.800
75.52000 120.600
75.94000 113.100
76.36000 115.400
76.78000 123.800
77.20000 130.100
77.62000 106.700
78.04000 106.500
78.46000 132.600
78.88000 121.600
79.30000 122.800
79.72000 125.900
80.14000 110.200
80.56000 130.200
80.98000 96.800
81.40000 120.800
81.82000 102.500
82.24000 123.300
82.66000 143.900
83.08000 116.600
83.50000 119.800
83.92000 116.100
84.34000 119.900
84.76000 118.400
85.18000 114.600
85.60000 136.000
86.02000 161.600
86.44000 123.300
86.86000 135.800
87.28000 112.100
87.70000 124.300
88.12000 156.800
88.54000 133.600
88.96000 121.500
89.38000 120.900
89.80000 132.200
90.22000 119.800
90.64000 114.100
91.06000 118.100
91.48000 118.500
91.90000 127.300
92.32000 137.600
92.74000 125.700
93.16000 127.500
93.58000 118.600
94.00000 141.100
94.42000 138.700
94.84000 125.300
95.26000 119.700
95.68000 115.200
96.10000 113.100
96.52000 135.600
96.94000 125.100
97.36000 105.700
97.78000 119.600
98.20000 127.400
98.62000 107.900
99.04000 129.000
99.46000 125.100
99.88000 126.300
100.3 144.200
100.72 124.300
101.14 116.300
101.56 158.000
101.98 139.100
102.4 121.900
102.82 145.600
103.24 109.700
103.66 146.900
104.08 135.000
104.5 126.400
104.92 119.200
105.34 116.300
105.76 118.200
106.18 130.300
106.6 111.600
107.02 137.500
107.44 134.000
107.86 135.000
108.28 139.100
108.7 145.000
109.12 134.900
109.54 124.000
109.96 127.200
110.38 112.800
110.8 121.500
111.22 110.800
111.64 118.700
112.06 109.600
112.48 121.100
112.9 115.500
113.32 96.900
113.74 116.600
114.16 122.500
114.58 119.700
115 113.000
115.42 117.500
115.84 104.100
116.26 132.100
116.68 98.900
117.1 111.500
117.52 121.100
117.94 118.400
118.36 114.500
118.78 111.600
119.2 83.400
119.62 88.200
120.04 105.400
120.46 113.800
120.88 115.800
121.3 119.000
121.72 119.200
122.14 113.300
122.56 104.300
122.98 118.500
123.4 120.800
123.82 101.600
124.24 94.200
124.66 110.900
125.08 122.900
125.5 125.000
125.92 107.300
126.34 109.100
126.76 113.100
127.18 108.900
127.6 113.800
128.02 116.600
128.44 103.400
128.86 98.500
129.28 115.500
129.7 96.100
130.12 118.600
130.54 118.000
130.96 105.600
131 109.800